{
    "Inputs": {
        "NozzleConfig": "TOPN-BN",
        "DefaultCheck": 0,
        "P1": 2165262.8440689035,
        "n": 100.0,
        "EngineConfig": "Test-Engine.json",
        "specInputs": {
            "K (Factor Garganta):": 0.5,
            "theta_t (deg):": 30.0,
            "theta_e (deg):": 6.0,
            "% (L. Cono):": 0.8
        }
    },
    "geometry_data": {
        "X (m)": [
            0.0,
            2.7e-05,
            5.3e-05,
            8e-05,
            0.000107,
            0.000134,
            0.00016,
            0.000187,
            0.000213,
            0.00024,
            0.000267,
            0.000293,
            0.00032,
            0.000346,
            0.000373,
            0.000399,
            0.000425,
            0.000452,
            0.000478,
            0.000504,
            0.00053,
            0.000556,
            0.000582,
            0.000608,
            0.000634,
            0.00066,
            0.000686,
            0.000711,
            0.000737,
            0.000762,
            0.000788,
            0.000813,
            0.000838,
            0.000863,
            0.000888,
            0.000913,
            0.000938,
            0.000963,
            0.000987,
            0.001012,
            0.001036,
            0.001061,
            0.001085,
            0.001109,
            0.001133,
            0.001156,
            0.00118,
            0.001203,
            0.001227,
            0.00125,
            0.00125,
            0.001534,
            0.001819,
            0.002103,
            0.002388,
            0.002672,
            0.002957,
            0.003241,
            0.003525,
            0.00381,
            0.004094,
            0.004379,
            0.004664,
            0.004948,
            0.005233,
            0.005517,
            0.005802,
            0.006086,
            0.006371,
            0.006656,
            0.00694,
            0.007225,
            0.00751,
            0.007794,
            0.008079,
            0.008364,
            0.008649,
            0.008933,
            0.009218,
            0.009503,
            0.009788,
            0.010072,
            0.010357,
            0.010642,
            0.010927,
            0.011212,
            0.011497,
            0.011782,
            0.012067,
            0.012351,
            0.012636,
            0.012921,
            0.013206,
            0.013491,
            0.013776,
            0.014061,
            0.014346,
            0.014631,
            0.014916,
            0.015201
        ],
        "Y (m)": [
            0.005,
            0.005,
            0.005001,
            0.005001,
            0.005002,
            0.005004,
            0.005005,
            0.005007,
            0.005009,
            0.005012,
            0.005014,
            0.005017,
            0.005021,
            0.005024,
            0.005028,
            0.005032,
            0.005036,
            0.005041,
            0.005046,
            0.005051,
            0.005057,
            0.005063,
            0.005069,
            0.005075,
            0.005082,
            0.005089,
            0.005096,
            0.005103,
            0.005111,
            0.005119,
            0.005127,
            0.005136,
            0.005145,
            0.005154,
            0.005163,
            0.005173,
            0.005183,
            0.005193,
            0.005203,
            0.005214,
            0.005225,
            0.005236,
            0.005248,
            0.005259,
            0.005271,
            0.005284,
            0.005296,
            0.005309,
            0.005322,
            0.005335,
            0.005335,
            0.005498,
            0.005658,
            0.005815,
            0.00597,
            0.006122,
            0.006271,
            0.006417,
            0.006561,
            0.006702,
            0.00684,
            0.006975,
            0.007108,
            0.007238,
            0.007365,
            0.00749,
            0.007611,
            0.00773,
            0.007846,
            0.00796,
            0.008071,
            0.008179,
            0.008284,
            0.008387,
            0.008486,
            0.008584,
            0.008678,
            0.008769,
            0.008858,
            0.008944,
            0.009028,
            0.009108,
            0.009186,
            0.009262,
            0.009334,
            0.009404,
            0.009471,
            0.009535,
            0.009596,
            0.009655,
            0.009711,
            0.009764,
            0.009815,
            0.009862,
            0.009907,
            0.00995,
            0.009989,
            0.010026,
            0.01006,
            0.010092
        ],
        "AR (m)": [
            1.0,
            1.000057,
            1.000228,
            1.000514,
            1.000914,
            1.001427,
            1.002056,
            1.002798,
            1.003655,
            1.004626,
            1.005712,
            1.006912,
            1.008227,
            1.009656,
            1.0112,
            1.012859,
            1.014633,
            1.016522,
            1.018526,
            1.020645,
            1.022879,
            1.025229,
            1.027695,
            1.030276,
            1.032973,
            1.035785,
            1.038714,
            1.041759,
            1.044921,
            1.048199,
            1.051593,
            1.055104,
            1.058733,
            1.062478,
            1.066341,
            1.070321,
            1.074419,
            1.078634,
            1.082967,
            1.087419,
            1.091988,
            1.096676,
            1.101483,
            1.106408,
            1.111452,
            1.116616,
            1.121898,
            1.1273,
            1.132821,
            1.138462,
            1.138462,
            1.209011,
            1.28044,
            1.352644,
            1.425521,
            1.498968,
            1.572885,
            1.647174,
            1.72174,
            1.796487,
            1.871323,
            1.946158,
            2.020902,
            2.095468,
            2.16977,
            2.243725,
            2.317252,
            2.390269,
            2.4627,
            2.534467,
            2.605495,
            2.675713,
            2.745049,
            2.813433,
            2.880799,
            2.94708,
            3.012214,
            3.076137,
            3.13879,
            3.200114,
            3.260053,
            3.318552,
            3.375558,
            3.431019,
            3.484886,
            3.537112,
            3.587651,
            3.636458,
            3.683493,
            3.728713,
            3.772081,
            3.813559,
            3.853113,
            3.89071,
            3.926318,
            3.959908,
            3.991451,
            4.020922,
            4.048296,
            4.073552
        ]
    },
    "timeResults_data": {
        "Tiempo (s)": [
            0.0,
            0.001,
            0.002,
            0.003,
            0.004,
            0.005,
            0.006,
            0.007,
            0.008,
            0.009,
            0.01,
            0.011,
            0.012,
            0.013,
            0.014,
            0.015,
            0.016,
            0.017,
            0.018,
            0.019,
            0.02,
            0.021,
            0.022,
            0.023,
            0.024,
            0.025,
            0.026,
            0.027,
            0.028,
            0.029,
            0.03,
            0.031,
            0.032,
            0.033,
            0.034,
            0.035,
            0.036,
            0.037,
            0.038,
            0.039,
            0.04,
            0.041,
            0.042,
            0.043,
            0.044,
            0.045,
            0.046,
            0.047,
            0.048,
            0.049,
            0.05,
            0.051,
            0.052,
            0.053,
            0.054,
            0.055,
            0.056,
            0.057,
            0.058,
            0.059,
            0.06,
            0.061,
            0.062,
            0.063,
            0.064,
            0.065,
            0.066,
            0.067,
            0.068,
            0.069,
            0.07,
            0.071,
            0.072,
            0.073,
            0.074,
            0.075,
            0.076,
            0.077,
            0.078,
            0.079,
            0.08,
            0.081,
            0.082,
            0.083,
            0.084,
            0.085,
            0.086,
            0.087,
            0.088,
            0.089,
            0.09,
            0.091,
            0.092,
            0.093,
            0.094,
            0.095,
            0.096,
            0.097,
            0.098,
            0.099,
            0.1,
            0.101,
            0.102,
            0.103,
            0.104,
            0.105,
            0.106,
            0.107,
            0.108,
            0.109,
            0.11,
            0.111,
            0.112,
            0.113,
            0.114,
            0.115,
            0.116,
            0.117,
            0.118,
            0.119,
            0.12,
            0.121,
            0.122,
            0.123,
            0.124,
            0.125,
            0.126,
            0.127,
            0.128,
            0.129,
            0.13,
            0.131,
            0.132,
            0.133,
            0.134,
            0.135,
            0.136,
            0.137,
            0.138,
            0.139,
            0.14,
            0.141,
            0.142,
            0.143,
            0.144,
            0.145,
            0.146,
            0.147,
            0.148,
            0.149,
            0.15,
            0.151,
            0.152,
            0.153,
            0.154,
            0.155,
            0.156,
            0.157,
            0.158,
            0.159,
            0.16,
            0.161,
            0.162,
            0.163,
            0.164,
            0.165,
            0.166,
            0.167,
            0.168,
            0.169,
            0.17,
            0.171,
            0.172,
            0.173,
            0.174,
            0.175,
            0.176,
            0.177,
            0.178,
            0.179,
            0.18,
            0.181,
            0.182,
            0.183,
            0.184,
            0.185,
            0.186,
            0.187,
            0.188,
            0.189,
            0.19,
            0.191,
            0.192,
            0.193,
            0.194,
            0.195,
            0.196,
            0.197,
            0.198,
            0.199,
            0.2,
            0.201,
            0.202,
            0.203,
            0.204,
            0.205,
            0.206,
            0.207,
            0.208,
            0.209,
            0.21,
            0.211,
            0.212,
            0.213,
            0.214,
            0.215,
            0.216,
            0.217,
            0.218,
            0.219,
            0.22,
            0.221,
            0.222,
            0.223,
            0.224,
            0.225,
            0.226,
            0.227,
            0.228,
            0.229,
            0.23,
            0.231,
            0.232,
            0.233,
            0.234,
            0.235,
            0.236,
            0.237,
            0.238,
            0.239,
            0.24,
            0.241,
            0.242,
            0.243,
            0.244,
            0.245,
            0.246,
            0.247,
            0.248,
            0.249,
            0.25,
            0.251,
            0.252,
            0.253,
            0.254,
            0.255,
            0.256,
            0.257,
            0.258,
            0.259,
            0.26,
            0.261,
            0.262,
            0.263,
            0.264,
            0.265,
            0.266,
            0.267,
            0.268,
            0.269,
            0.27,
            0.271,
            0.272,
            0.273,
            0.274,
            0.275,
            0.276,
            0.277,
            0.278,
            0.279,
            0.28,
            0.281,
            0.282,
            0.283,
            0.284,
            0.285,
            0.286,
            0.287,
            0.288,
            0.289,
            0.29,
            0.291,
            0.292,
            0.293,
            0.294,
            0.295,
            0.296,
            0.297,
            0.298,
            0.299,
            0.3,
            0.301,
            0.302,
            0.303,
            0.304,
            0.305,
            0.306,
            0.307,
            0.308,
            0.309,
            0.31,
            0.311,
            0.312,
            0.313,
            0.314,
            0.315,
            0.316,
            0.317,
            0.318,
            0.319,
            0.32,
            0.321,
            0.322,
            0.323,
            0.324,
            0.325,
            0.326,
            0.327,
            0.328,
            0.329,
            0.33,
            0.331,
            0.332,
            0.333,
            0.334,
            0.335,
            0.336,
            0.337,
            0.338,
            0.339,
            0.34,
            0.341,
            0.342,
            0.343,
            0.344,
            0.345,
            0.346,
            0.347,
            0.348,
            0.349,
            0.35,
            0.351,
            0.352,
            0.353,
            0.354,
            0.355,
            0.356,
            0.357,
            0.358,
            0.359,
            0.36,
            0.361,
            0.362,
            0.363,
            0.364,
            0.365,
            0.366,
            0.367,
            0.368,
            0.369,
            0.37,
            0.371,
            0.372,
            0.373,
            0.374,
            0.375,
            0.376,
            0.377,
            0.378,
            0.379,
            0.38,
            0.381,
            0.382,
            0.383,
            0.384,
            0.385,
            0.386,
            0.387,
            0.388,
            0.389,
            0.39,
            0.391,
            0.392,
            0.393,
            0.394,
            0.395,
            0.396,
            0.397,
            0.398,
            0.399,
            0.4,
            0.401,
            0.402,
            0.403,
            0.404,
            0.405,
            0.406,
            0.407,
            0.408,
            0.409,
            0.41,
            0.411,
            0.412,
            0.413,
            0.414,
            0.415,
            0.416,
            0.417,
            0.418,
            0.419,
            0.42,
            0.421,
            0.422,
            0.423,
            0.424,
            0.425,
            0.426,
            0.427,
            0.428,
            0.429,
            0.43,
            0.431,
            0.432,
            0.433,
            0.434,
            0.435,
            0.436,
            0.437,
            0.438,
            0.439,
            0.44,
            0.441,
            0.442,
            0.443,
            0.444,
            0.445,
            0.446,
            0.447,
            0.448,
            0.449,
            0.45,
            0.451,
            0.452,
            0.453,
            0.454,
            0.455,
            0.456,
            0.457,
            0.458,
            0.459,
            0.46,
            0.461,
            0.462,
            0.463,
            0.464,
            0.465,
            0.466,
            0.467,
            0.468,
            0.469,
            0.47,
            0.471,
            0.472,
            0.473,
            0.474,
            0.475,
            0.476,
            0.477,
            0.478,
            0.479,
            0.48,
            0.481,
            0.482,
            0.483,
            0.484,
            0.485,
            0.486,
            0.487,
            0.488,
            0.489,
            0.49,
            0.491,
            0.492,
            0.493,
            0.494,
            0.495,
            0.496,
            0.497,
            0.498,
            0.499,
            0.5,
            0.501,
            0.502,
            0.503,
            0.504,
            0.505,
            0.506,
            0.507,
            0.508,
            0.509,
            0.51,
            0.511,
            0.512,
            0.513,
            0.514,
            0.515,
            0.516,
            0.517,
            0.518,
            0.519,
            0.52,
            0.521,
            0.522,
            0.523,
            0.524,
            0.525,
            0.526,
            0.527,
            0.528,
            0.529,
            0.53,
            0.531,
            0.532,
            0.533,
            0.534,
            0.535,
            0.536,
            0.537,
            0.538,
            0.539,
            0.54,
            0.541,
            0.542,
            0.543,
            0.544,
            0.545,
            0.546,
            0.547,
            0.548,
            0.549,
            0.55,
            0.551,
            0.552,
            0.553,
            0.554,
            0.555,
            0.556,
            0.557,
            0.558,
            0.559,
            0.56,
            0.561,
            0.562,
            0.563,
            0.564,
            0.565,
            0.566,
            0.567,
            0.568,
            0.569,
            0.57,
            0.571,
            0.572,
            0.573,
            0.574,
            0.575,
            0.576,
            0.577,
            0.578,
            0.579,
            0.58,
            0.581,
            0.582,
            0.583,
            0.584,
            0.585,
            0.586,
            0.587,
            0.588,
            0.589,
            0.59,
            0.591,
            0.592,
            0.593,
            0.594,
            0.595,
            0.596,
            0.597,
            0.598,
            0.599,
            0.6,
            0.601,
            0.602,
            0.603,
            0.604,
            0.605,
            0.606,
            0.607,
            0.608,
            0.609,
            0.61,
            0.611,
            0.612,
            0.613,
            0.614,
            0.615,
            0.616,
            0.617,
            0.618,
            0.619,
            0.62,
            0.621,
            0.622,
            0.623,
            0.624,
            0.625,
            0.626,
            0.627,
            0.628,
            0.629,
            0.63,
            0.631,
            0.632,
            0.633,
            0.634,
            0.635,
            0.636,
            0.637,
            0.638,
            0.639,
            0.64,
            0.641,
            0.642,
            0.643,
            0.644,
            0.645,
            0.646,
            0.647,
            0.648,
            0.649,
            0.65,
            0.651,
            0.652,
            0.653,
            0.654,
            0.655,
            0.656,
            0.657,
            0.658,
            0.659,
            0.66,
            0.661,
            0.662,
            0.663,
            0.664,
            0.665,
            0.666,
            0.667,
            0.668,
            0.669,
            0.67,
            0.671,
            0.672,
            0.673,
            0.674,
            0.675,
            0.676,
            0.677,
            0.678,
            0.679,
            0.68,
            0.681,
            0.682,
            0.683,
            0.684,
            0.685,
            0.686,
            0.687,
            0.688,
            0.689,
            0.69,
            0.691,
            0.692,
            0.693,
            0.694,
            0.695,
            0.696,
            0.697,
            0.698,
            0.699,
            0.7,
            0.701,
            0.702,
            0.703,
            0.704,
            0.705,
            0.706,
            0.707,
            0.708,
            0.709,
            0.71,
            0.711,
            0.712,
            0.713,
            0.714,
            0.715,
            0.716,
            0.717,
            0.718,
            0.719,
            0.72,
            0.721,
            0.722,
            0.723,
            0.724,
            0.725,
            0.726,
            0.727,
            0.728,
            0.729,
            0.73,
            0.731,
            0.732,
            0.733,
            0.734,
            0.735,
            0.736,
            0.737,
            0.738,
            0.739,
            0.74,
            0.741,
            0.742,
            0.743,
            0.744,
            0.745,
            0.746,
            0.747,
            0.748,
            0.749,
            0.75,
            0.751,
            0.752,
            0.753,
            0.754,
            0.755,
            0.756,
            0.757,
            0.758,
            0.759,
            0.76,
            0.761,
            0.762,
            0.763,
            0.764,
            0.765,
            0.766,
            0.767,
            0.768,
            0.769,
            0.77,
            0.771,
            0.772,
            0.773,
            0.774,
            0.775,
            0.776,
            0.777,
            0.778,
            0.779,
            0.78,
            0.781,
            0.782,
            0.783,
            0.784,
            0.785,
            0.786,
            0.787,
            0.788,
            0.789,
            0.79,
            0.791,
            0.792,
            0.793,
            0.794,
            0.795,
            0.796,
            0.797,
            0.798,
            0.799,
            0.8,
            0.801,
            0.802,
            0.803,
            0.804,
            0.805,
            0.806,
            0.807,
            0.808,
            0.809,
            0.81,
            0.811,
            0.812,
            0.813,
            0.814,
            0.815,
            0.816,
            0.817,
            0.818,
            0.819,
            0.82,
            0.821,
            0.822,
            0.823,
            0.824,
            0.825,
            0.826,
            0.827,
            0.828,
            0.829,
            0.83,
            0.831,
            0.832,
            0.833,
            0.834,
            0.835,
            0.836,
            0.837,
            0.838,
            0.839,
            0.84,
            0.841,
            0.842,
            0.843,
            0.844,
            0.845,
            0.846,
            0.847,
            0.848,
            0.849,
            0.85,
            0.851,
            0.852,
            0.853,
            0.854,
            0.855,
            0.856,
            0.857,
            0.858,
            0.859,
            0.86,
            0.861,
            0.862,
            0.863,
            0.864,
            0.865,
            0.866,
            0.867,
            0.868,
            0.869,
            0.87,
            0.871,
            0.872,
            0.873,
            0.874,
            0.875,
            0.876,
            0.877,
            0.878,
            0.879,
            0.88,
            0.881,
            0.882,
            0.883,
            0.884,
            0.885,
            0.886,
            0.887,
            0.888,
            0.889,
            0.89,
            0.891,
            0.892,
            0.893,
            0.894,
            0.895,
            0.896,
            0.897,
            0.898,
            0.899,
            0.9,
            0.901,
            0.902,
            0.903,
            0.904,
            0.905,
            0.906,
            0.907,
            0.908,
            0.909,
            0.91,
            0.911,
            0.912,
            0.913,
            0.914,
            0.915,
            0.916,
            0.917,
            0.918,
            0.919,
            0.92,
            0.921,
            0.922,
            0.923,
            0.924,
            0.925,
            0.926,
            0.927,
            0.928,
            0.929,
            0.93,
            0.931,
            0.932,
            0.933,
            0.934,
            0.935,
            0.936,
            0.937,
            0.938,
            0.939,
            0.94,
            0.941,
            0.942,
            0.943,
            0.944,
            0.945,
            0.946,
            0.947,
            0.948,
            0.949,
            0.95,
            0.951,
            0.952,
            0.953,
            0.954,
            0.955,
            0.956,
            0.957,
            0.958,
            0.959,
            0.96,
            0.961,
            0.962,
            0.963,
            0.964,
            0.965,
            0.966,
            0.967,
            0.968,
            0.969,
            0.97,
            0.971,
            0.972,
            0.973,
            0.974,
            0.975,
            0.976,
            0.977,
            0.978,
            0.979,
            0.98,
            0.981,
            0.982,
            0.983,
            0.984,
            0.985,
            0.986,
            0.987,
            0.988,
            0.989,
            0.99,
            0.991,
            0.992,
            0.993,
            0.994,
            0.995,
            0.996,
            0.997,
            0.998,
            0.999,
            1.0,
            1.001,
            1.002,
            1.003,
            1.004,
            1.005,
            1.006,
            1.007,
            1.008,
            1.009,
            1.01,
            1.011,
            1.012,
            1.013,
            1.014,
            1.015,
            1.016,
            1.017,
            1.018,
            1.019,
            1.02,
            1.021,
            1.022,
            1.023,
            1.024,
            1.025,
            1.026,
            1.027,
            1.028,
            1.029,
            1.03,
            1.031,
            1.032,
            1.033,
            1.034,
            1.035,
            1.036,
            1.037,
            1.038,
            1.039,
            1.04,
            1.041,
            1.042,
            1.043,
            1.044,
            1.045,
            1.046,
            1.047,
            1.048,
            1.049,
            1.05,
            1.051,
            1.052,
            1.053,
            1.054,
            1.055,
            1.056,
            1.057,
            1.058,
            1.059,
            1.06,
            1.061,
            1.062,
            1.063,
            1.064,
            1.065,
            1.066,
            1.067,
            1.068,
            1.069,
            1.07,
            1.071,
            1.072,
            1.073,
            1.074,
            1.075,
            1.076,
            1.077,
            1.078,
            1.079,
            1.08,
            1.081,
            1.082,
            1.083,
            1.084,
            1.085,
            1.086,
            1.087,
            1.088,
            1.089,
            1.09,
            1.091,
            1.092,
            1.093,
            1.094,
            1.095,
            1.096,
            1.097,
            1.098,
            1.099,
            1.1,
            1.101,
            1.102,
            1.103,
            1.104,
            1.105,
            1.106,
            1.107,
            1.108,
            1.109,
            1.11,
            1.111,
            1.112,
            1.113,
            1.114,
            1.115,
            1.116,
            1.117,
            1.118,
            1.119,
            1.12,
            1.121,
            1.122,
            1.123,
            1.124,
            1.125,
            1.126,
            1.127,
            1.128,
            1.129,
            1.13,
            1.131,
            1.132,
            1.133,
            1.134,
            1.135,
            1.136,
            1.137,
            1.138,
            1.139,
            1.14,
            1.141,
            1.142,
            1.143,
            1.144,
            1.145,
            1.146,
            1.147,
            1.148,
            1.149,
            1.15,
            1.151,
            1.152,
            1.153,
            1.154,
            1.155,
            1.156,
            1.157,
            1.158,
            1.159,
            1.16,
            1.161,
            1.162,
            1.163,
            1.164,
            1.165,
            1.166,
            1.167,
            1.168,
            1.169,
            1.17,
            1.171,
            1.172,
            1.173,
            1.174,
            1.175,
            1.176,
            1.177,
            1.178,
            1.179,
            1.18,
            1.181,
            1.182,
            1.183,
            1.184,
            1.185,
            1.186,
            1.187,
            1.188,
            1.189,
            1.19,
            1.191,
            1.192,
            1.193,
            1.194,
            1.195,
            1.196,
            1.197,
            1.198,
            1.199,
            1.2,
            1.201,
            1.202,
            1.203,
            1.204,
            1.205,
            1.206,
            1.207,
            1.208,
            1.209,
            1.21,
            1.211,
            1.212,
            1.213,
            1.214,
            1.215,
            1.216,
            1.217,
            1.218,
            1.219,
            1.22,
            1.221,
            1.222,
            1.223,
            1.224,
            1.225,
            1.226,
            1.227,
            1.228,
            1.229,
            1.23,
            1.231,
            1.232,
            1.233,
            1.234,
            1.235,
            1.236,
            1.237,
            1.238,
            1.239,
            1.24,
            1.241,
            1.242,
            1.243,
            1.244,
            1.245,
            1.246,
            1.247,
            1.248,
            1.249,
            1.25,
            1.251,
            1.252,
            1.253,
            1.254,
            1.255,
            1.256,
            1.257,
            1.258,
            1.259,
            1.26,
            1.261,
            1.262,
            1.263,
            1.264,
            1.265,
            1.266,
            1.267,
            1.268,
            1.269,
            1.27,
            1.271,
            1.272,
            1.273,
            1.274,
            1.275,
            1.276,
            1.277,
            1.278,
            1.279,
            1.28,
            1.281,
            1.282,
            1.283,
            1.284,
            1.285,
            1.286,
            1.287,
            1.288,
            1.289,
            1.29,
            1.291,
            1.292,
            1.293,
            1.294,
            1.295,
            1.296,
            1.297,
            1.298,
            1.299,
            1.3,
            1.301,
            1.302,
            1.303,
            1.304,
            1.305,
            1.306,
            1.307,
            1.308,
            1.309,
            1.31,
            1.311,
            1.312,
            1.313,
            1.314,
            1.315,
            1.316,
            1.317,
            1.318,
            1.319,
            1.32,
            1.321,
            1.322,
            1.323,
            1.324,
            1.325,
            1.326,
            1.327,
            1.328,
            1.329,
            1.33,
            1.331,
            1.332,
            1.333,
            1.334,
            1.335,
            1.336,
            1.337,
            1.338,
            1.339,
            1.34,
            1.341,
            1.342,
            1.343,
            1.344,
            1.345,
            1.346,
            1.347,
            1.348,
            1.349,
            1.35,
            1.351,
            1.352,
            1.353,
            1.354,
            1.355,
            1.356,
            1.357,
            1.358,
            1.359,
            1.36,
            1.361,
            1.362,
            1.363,
            1.364,
            1.365,
            1.366,
            1.367,
            1.368,
            1.369,
            1.37,
            1.371,
            1.372,
            1.373,
            1.374,
            1.375,
            1.376,
            1.377,
            1.378,
            1.379,
            1.38,
            1.381,
            1.382,
            1.383,
            1.384,
            1.385,
            1.386,
            1.387,
            1.388,
            1.389,
            1.39,
            1.391,
            1.392,
            1.393,
            1.394,
            1.395,
            1.396,
            1.397,
            1.398,
            1.399,
            1.4,
            1.401,
            1.402,
            1.403,
            1.404,
            1.405,
            1.406,
            1.407,
            1.408,
            1.409,
            1.41,
            1.411,
            1.412,
            1.413,
            1.414,
            1.415,
            1.416,
            1.417,
            1.418,
            1.419,
            1.42,
            1.421,
            1.422,
            1.423,
            1.424,
            1.425,
            1.426,
            1.427,
            1.428,
            1.429,
            1.43,
            1.431,
            1.432,
            1.433,
            1.434,
            1.435,
            1.436,
            1.437,
            1.438,
            1.439,
            1.44,
            1.441,
            1.442,
            1.443,
            1.444,
            1.445,
            1.446,
            1.447,
            1.448,
            1.449,
            1.45,
            1.451,
            1.452,
            1.453,
            1.454,
            1.455,
            1.456,
            1.457,
            1.458,
            1.459,
            1.46,
            1.461,
            1.462,
            1.463,
            1.464,
            1.465,
            1.466,
            1.467,
            1.468,
            1.469,
            1.47,
            1.471,
            1.472,
            1.473,
            1.474,
            1.475,
            1.476,
            1.477,
            1.478,
            1.479,
            1.48,
            1.481,
            1.482,
            1.483,
            1.484,
            1.485,
            1.486,
            1.487,
            1.488,
            1.489,
            1.49,
            1.491,
            1.492,
            1.493,
            1.494,
            1.495,
            1.496,
            1.497,
            1.498,
            1.499,
            1.5,
            1.501,
            1.502,
            1.503,
            1.504,
            1.505,
            1.506,
            1.507,
            1.508,
            1.509,
            1.51,
            1.511,
            1.512,
            1.513,
            1.514,
            1.515,
            1.516,
            1.517,
            1.518,
            1.519,
            1.52,
            1.521,
            1.522,
            1.523,
            1.524,
            1.525,
            1.526,
            1.527,
            1.528,
            1.529,
            1.53,
            1.531,
            1.532,
            1.533,
            1.534,
            1.535,
            1.536,
            1.537,
            1.538,
            1.539,
            1.54,
            1.541,
            1.542,
            1.543,
            1.544,
            1.545,
            1.546,
            1.547,
            1.548,
            1.549,
            1.55,
            1.551,
            1.552,
            1.553,
            1.554,
            1.555,
            1.556,
            1.557,
            1.558,
            1.559,
            1.56,
            1.561,
            1.562,
            1.563,
            1.564,
            1.565,
            1.566,
            1.567,
            1.568,
            1.569,
            1.57,
            1.571,
            1.572,
            1.573,
            1.574,
            1.575,
            1.576,
            1.577,
            1.578,
            1.579,
            1.58,
            1.581,
            1.582,
            1.583,
            1.584,
            1.585,
            1.586,
            1.587,
            1.588,
            1.589,
            1.59,
            1.591,
            1.592,
            1.593,
            1.594,
            1.595,
            1.596,
            1.597,
            1.598,
            1.599,
            1.6,
            1.601,
            1.602,
            1.603,
            1.604,
            1.605,
            1.606,
            1.607,
            1.608,
            1.609,
            1.61,
            1.611,
            1.612,
            1.613,
            1.614,
            1.615,
            1.616,
            1.617,
            1.618,
            1.619,
            1.62,
            1.621,
            1.622,
            1.623,
            1.624,
            1.625,
            1.626,
            1.627,
            1.628,
            1.629,
            1.63,
            1.631,
            1.632,
            1.633,
            1.634,
            1.635,
            1.636,
            1.637,
            1.638,
            1.639,
            1.64,
            1.641,
            1.642,
            1.643,
            1.644,
            1.645,
            1.646,
            1.647,
            1.648,
            1.649,
            1.65,
            1.651,
            1.652
        ],
        "Empuje (kg)": [
            0.0,
            2.6609,
            3.5831,
            3.9955,
            4.1946,
            4.2947,
            4.3476,
            4.3775,
            4.3962,
            4.4095,
            4.4201,
            4.4294,
            4.4381,
            4.4464,
            4.4546,
            4.4627,
            4.4708,
            4.4789,
            4.4869,
            4.495,
            4.5031,
            4.5111,
            4.5192,
            4.5273,
            4.5354,
            4.5435,
            4.5516,
            4.5597,
            4.5678,
            4.5759,
            4.584,
            4.5921,
            4.6002,
            4.6083,
            4.6165,
            4.6246,
            4.6328,
            4.6409,
            4.6491,
            4.6572,
            4.6654,
            4.6735,
            4.6817,
            4.6899,
            4.6981,
            4.7063,
            4.7145,
            4.7227,
            4.7309,
            4.7391,
            4.7473,
            4.7555,
            4.7637,
            4.772,
            4.7802,
            4.7884,
            4.7967,
            4.8049,
            4.8132,
            4.8214,
            4.8297,
            4.838,
            4.8462,
            4.8545,
            4.8628,
            4.8711,
            4.8794,
            4.8877,
            4.896,
            4.9043,
            4.9126,
            4.9209,
            4.9292,
            4.9376,
            4.9459,
            4.9542,
            4.9626,
            4.9709,
            4.9793,
            4.9876,
            4.996,
            5.0044,
            5.0128,
            5.0211,
            5.0295,
            5.0379,
            5.0463,
            5.0547,
            5.0631,
            5.0715,
            5.0799,
            5.0883,
            5.0968,
            5.1052,
            5.1136,
            5.1221,
            5.1305,
            5.139,
            5.1474,
            5.1559,
            5.1643,
            5.1728,
            5.1813,
            5.1898,
            5.1983,
            5.2068,
            5.2152,
            5.2237,
            5.2323,
            5.2408,
            5.2493,
            5.2578,
            5.2663,
            5.2749,
            5.2834,
            5.2919,
            5.3005,
            5.309,
            5.3176,
            5.3261,
            5.3347,
            5.3433,
            5.3519,
            5.3604,
            5.369,
            5.3776,
            5.3862,
            5.3948,
            5.4034,
            5.412,
            5.4207,
            5.4293,
            5.4379,
            5.4465,
            5.4552,
            5.4638,
            5.4725,
            5.4811,
            5.4898,
            5.4984,
            5.5071,
            5.5158,
            5.5245,
            5.5332,
            5.5418,
            5.5505,
            5.5592,
            5.5679,
            5.5766,
            5.5854,
            5.5941,
            5.6028,
            5.6115,
            5.6203,
            5.629,
            5.6378,
            5.6465,
            5.6553,
            5.664,
            5.6728,
            5.6816,
            5.6903,
            5.6991,
            5.7079,
            5.7167,
            5.7255,
            5.7343,
            5.7431,
            5.7519,
            5.7607,
            5.7696,
            5.7784,
            5.7872,
            5.7961,
            5.8049,
            5.8137,
            5.8226,
            5.8315,
            5.8403,
            5.8492,
            5.8581,
            5.8669,
            5.8758,
            5.8847,
            5.8936,
            5.9025,
            5.9114,
            5.9203,
            5.9292,
            5.9382,
            5.9471,
            5.956,
            5.9649,
            5.9739,
            5.9828,
            5.9918,
            6.0007,
            6.0097,
            6.0187,
            6.0276,
            6.0366,
            6.0456,
            6.0546,
            6.0636,
            6.0726,
            6.0816,
            6.0906,
            6.0996,
            6.1086,
            6.1176,
            6.1267,
            6.1357,
            6.1447,
            6.1538,
            6.1628,
            6.1719,
            6.1809,
            6.19,
            6.1991,
            6.2082,
            6.2172,
            6.2263,
            6.2354,
            6.2445,
            6.2536,
            6.2627,
            6.2718,
            6.2809,
            6.2901,
            6.2992,
            6.3083,
            6.3175,
            6.3266,
            6.3357,
            6.3449,
            6.3541,
            6.3632,
            6.3724,
            6.3816,
            6.3907,
            6.3999,
            6.4091,
            6.4183,
            6.4275,
            6.4367,
            6.4459,
            6.4551,
            6.4644,
            6.4736,
            6.4828,
            6.4921,
            6.5013,
            6.5105,
            6.5198,
            6.529,
            6.5383,
            6.5476,
            6.5569,
            6.5661,
            6.5754,
            6.5847,
            6.594,
            6.6033,
            6.6126,
            6.6219,
            6.6312,
            6.6405,
            6.6499,
            6.6592,
            6.6685,
            6.6779,
            6.6872,
            6.6966,
            6.7059,
            6.7153,
            6.7247,
            6.734,
            6.7434,
            6.7528,
            6.7622,
            6.7716,
            6.781,
            6.7904,
            6.7998,
            6.8092,
            6.8186,
            6.828,
            6.8375,
            6.8469,
            6.8563,
            6.8658,
            6.8752,
            6.8847,
            6.8942,
            6.9036,
            6.9131,
            6.9226,
            6.932,
            6.9415,
            6.951,
            6.9605,
            6.97,
            6.9795,
            6.9891,
            6.9986,
            7.0081,
            7.0176,
            7.0272,
            7.0367,
            7.0462,
            7.0558,
            7.0654,
            7.0749,
            7.0845,
            7.0941,
            7.1036,
            7.1132,
            7.1228,
            7.1324,
            7.142,
            7.1516,
            7.1612,
            7.1708,
            7.1804,
            7.1901,
            7.1997,
            7.2093,
            7.219,
            7.2286,
            7.2383,
            7.2479,
            7.2576,
            7.2672,
            7.2769,
            7.2866,
            7.2963,
            7.306,
            7.3157,
            7.3254,
            7.3351,
            7.3448,
            7.3545,
            7.3642,
            7.3739,
            7.3837,
            7.3934,
            7.4031,
            7.4129,
            7.4226,
            7.4324,
            7.4422,
            7.4519,
            7.4617,
            7.4715,
            7.4813,
            7.491,
            7.5008,
            7.5106,
            7.5204,
            7.5303,
            7.5401,
            7.5499,
            7.5597,
            7.5695,
            7.5794,
            7.5892,
            7.5991,
            7.6089,
            7.6188,
            7.6286,
            7.6385,
            7.6484,
            7.6583,
            7.6682,
            7.678,
            7.6879,
            7.6978,
            7.7077,
            7.7177,
            7.7276,
            7.7375,
            7.7474,
            7.7574,
            7.7673,
            7.7772,
            7.7872,
            7.7971,
            7.8071,
            7.8171,
            7.827,
            7.837,
            7.847,
            7.857,
            7.867,
            7.877,
            7.887,
            7.897,
            7.907,
            7.917,
            7.927,
            7.9371,
            7.9471,
            7.9571,
            7.9672,
            7.9772,
            7.9873,
            7.9973,
            8.0074,
            8.0175,
            8.0276,
            8.0376,
            8.0477,
            8.0578,
            8.0679,
            8.078,
            8.0881,
            8.0982,
            8.1084,
            8.1185,
            8.1286,
            8.1388,
            8.1489,
            8.159,
            8.1692,
            8.1794,
            8.1895,
            8.1997,
            8.2099,
            8.22,
            8.2302,
            8.2404,
            8.2506,
            8.2608,
            8.271,
            8.2812,
            8.2914,
            8.3017,
            8.3119,
            8.3221,
            8.3324,
            8.3426,
            8.3529,
            8.3631,
            8.3734,
            8.3836,
            8.3939,
            8.4042,
            8.4145,
            8.4247,
            8.435,
            8.4453,
            8.4556,
            8.4659,
            8.4763,
            8.4866,
            8.4969,
            8.5072,
            8.5176,
            8.5279,
            8.5383,
            8.5486,
            8.559,
            8.5693,
            8.5797,
            8.5901,
            8.6004,
            8.6108,
            8.6212,
            8.6316,
            8.642,
            8.6524,
            8.6628,
            8.6733,
            8.6837,
            8.6941,
            8.7045,
            8.715,
            8.7254,
            8.7359,
            8.7463,
            8.7568,
            8.7672,
            8.7777,
            8.7882,
            8.7987,
            8.8092,
            8.8197,
            8.8302,
            8.8407,
            8.8512,
            8.8617,
            8.8722,
            8.8827,
            8.8933,
            8.9038,
            8.9143,
            8.9249,
            8.9354,
            8.946,
            8.9566,
            8.9671,
            8.9777,
            8.9883,
            8.9989,
            9.0095,
            9.02,
            9.0306,
            9.0413,
            9.0519,
            9.0625,
            9.0731,
            9.0837,
            9.0944,
            9.105,
            9.1157,
            9.1263,
            9.137,
            9.1476,
            9.1583,
            9.169,
            9.1796,
            9.1903,
            9.201,
            9.2117,
            9.2224,
            9.2331,
            9.2438,
            9.2545,
            9.2653,
            9.276,
            9.2867,
            9.2975,
            9.3082,
            9.319,
            9.3297,
            9.3405,
            9.3512,
            9.362,
            9.3728,
            9.3836,
            9.3943,
            9.4051,
            9.4159,
            9.4267,
            9.4376,
            9.4484,
            9.4592,
            9.47,
            9.4808,
            9.4917,
            9.5025,
            9.5134,
            9.5242,
            9.5351,
            9.5459,
            9.5568,
            9.5677,
            9.5786,
            9.5895,
            9.6003,
            9.6112,
            9.6221,
            9.6331,
            9.644,
            9.6549,
            9.6658,
            9.6767,
            9.6877,
            9.6986,
            9.7096,
            9.7205,
            9.7315,
            9.7424,
            9.7534,
            9.7644,
            9.7754,
            9.7863,
            9.7973,
            9.8083,
            9.8193,
            9.8303,
            9.8414,
            9.8524,
            9.8634,
            9.8744,
            9.8855,
            9.8965,
            9.9076,
            9.9186,
            9.9297,
            9.9407,
            9.9518,
            9.9629,
            9.9739,
            9.985,
            9.9961,
            10.0072,
            10.0183,
            10.0294,
            10.0405,
            10.0517,
            10.0628,
            10.0739,
            10.085,
            10.0962,
            10.1073,
            10.1185,
            10.1296,
            10.1408,
            10.152,
            10.1631,
            10.1743,
            10.1855,
            10.1967,
            10.2079,
            10.2191,
            10.2303,
            10.2415,
            10.2527,
            10.2639,
            10.2752,
            10.2864,
            10.2976,
            10.3089,
            10.3201,
            10.3314,
            10.3427,
            10.3539,
            10.3652,
            10.3765,
            10.3878,
            10.3991,
            10.4103,
            10.4216,
            10.433,
            10.4443,
            10.4556,
            10.4669,
            10.4782,
            10.4896,
            10.5009,
            10.5123,
            10.5236,
            10.535,
            10.5463,
            10.5577,
            10.5691,
            10.5804,
            10.5918,
            10.6032,
            10.6146,
            10.626,
            10.6374,
            10.6488,
            10.6603,
            10.6717,
            10.6831,
            10.6945,
            10.706,
            10.7174,
            10.7289,
            10.7403,
            10.7518,
            10.7633,
            10.7747,
            10.7862,
            10.7977,
            10.8092,
            10.8207,
            10.8322,
            10.8437,
            10.8552,
            10.8667,
            10.8783,
            10.8898,
            10.9013,
            10.9129,
            10.9244,
            10.936,
            10.9475,
            10.9591,
            10.9707,
            10.9822,
            10.9938,
            11.0054,
            11.017,
            11.0286,
            11.0402,
            11.0518,
            11.0634,
            11.075,
            11.0867,
            11.0983,
            11.1099,
            11.1216,
            11.1332,
            11.1449,
            11.1565,
            11.1682,
            11.1799,
            11.1915,
            11.2032,
            11.2149,
            11.2266,
            11.2383,
            11.25,
            11.2617,
            11.2734,
            11.2851,
            11.2969,
            11.3086,
            11.3203,
            11.3321,
            11.3438,
            11.3556,
            11.3673,
            11.3791,
            11.3909,
            11.4027,
            11.4144,
            11.4262,
            11.438,
            11.4498,
            11.4616,
            11.4734,
            11.4853,
            11.4971,
            11.5089,
            11.5207,
            11.5326,
            11.5444,
            11.5563,
            11.5681,
            11.58,
            11.5919,
            11.6037,
            11.6156,
            11.6275,
            11.6394,
            11.6513,
            11.6632,
            11.6751,
            11.687,
            11.6989,
            11.7108,
            11.7228,
            11.7347,
            11.7467,
            11.7586,
            11.7706,
            11.7825,
            11.7945,
            11.8064,
            11.8184,
            11.8304,
            11.8424,
            11.8544,
            11.8664,
            11.8784,
            11.8904,
            11.9024,
            11.9144,
            11.9264,
            11.9385,
            11.9505,
            11.9626,
            11.9746,
            11.9867,
            11.9987,
            12.0108,
            12.0229,
            12.0349,
            12.047,
            12.0591,
            12.0712,
            12.0833,
            12.0954,
            12.1075,
            12.1196,
            12.1318,
            12.1439,
            12.156,
            12.1682,
            12.1803,
            12.1925,
            12.2046,
            12.2168,
            12.2289,
            12.2411,
            12.2533,
            12.2655,
            12.2777,
            12.2899,
            12.3021,
            12.3143,
            12.3265,
            12.3387,
            12.3509,
            12.3632,
            12.3754,
            12.3877,
            12.3999,
            12.4122,
            12.4244,
            12.4367,
            12.449,
            12.4612,
            12.4735,
            12.4858,
            12.4981,
            12.5104,
            12.5227,
            12.535,
            12.5473,
            12.5596,
            12.572,
            12.5843,
            12.5966,
            12.609,
            12.6213,
            12.6337,
            12.6461,
            12.6584,
            12.6708,
            12.6832,
            12.6956,
            12.708,
            12.7204,
            12.7328,
            12.7452,
            12.7576,
            12.77,
            12.7824,
            12.7949,
            12.8073,
            12.8197,
            12.8322,
            12.8446,
            12.8571,
            12.8696,
            12.882,
            12.8945,
            12.907,
            12.9195,
            12.932,
            12.9445,
            12.957,
            12.9695,
            12.982,
            12.9945,
            13.0071,
            13.0196,
            13.0321,
            13.0447,
            13.0572,
            13.0698,
            13.0824,
            13.0949,
            13.1075,
            13.1201,
            13.1327,
            13.1453,
            13.1579,
            13.1705,
            13.1831,
            13.1957,
            13.2083,
            13.2209,
            13.2336,
            13.2462,
            13.2589,
            13.2715,
            13.2842,
            13.2968,
            13.3095,
            13.3222,
            13.3348,
            13.3475,
            13.3602,
            13.3729,
            13.3856,
            13.3983,
            13.411,
            13.4238,
            13.4365,
            13.4492,
            13.4619,
            13.4747,
            13.4874,
            13.5002,
            13.5129,
            13.5257,
            13.5385,
            13.5513,
            13.564,
            13.5768,
            13.5896,
            13.6024,
            13.6152,
            13.628,
            13.6409,
            13.6537,
            13.6665,
            13.6794,
            13.6922,
            13.705,
            13.7179,
            13.7307,
            13.7436,
            13.7565,
            13.7694,
            13.7822,
            13.7951,
            13.808,
            13.8209,
            13.8338,
            13.8467,
            13.8596,
            13.8726,
            13.8855,
            13.8984,
            13.9114,
            13.9243,
            13.9373,
            13.9502,
            13.9632,
            13.9762,
            13.9891,
            14.0021,
            14.0151,
            14.0281,
            14.0411,
            14.0541,
            14.0671,
            14.0801,
            14.0931,
            14.1062,
            14.1192,
            14.1322,
            14.1453,
            14.1583,
            14.1714,
            14.1844,
            14.1975,
            14.2106,
            14.2237,
            14.2367,
            14.2498,
            14.2629,
            14.276,
            14.2891,
            14.3023,
            14.3154,
            14.3285,
            14.3416,
            14.3548,
            14.3679,
            14.3811,
            14.3942,
            14.4074,
            14.4205,
            14.4337,
            14.4469,
            14.4601,
            14.4733,
            14.4865,
            14.4997,
            14.5129,
            14.5261,
            14.5393,
            14.5525,
            14.5658,
            14.579,
            14.5922,
            14.6055,
            14.6187,
            14.632,
            14.6453,
            14.6585,
            14.6718,
            14.6851,
            14.6984,
            14.7117,
            14.725,
            14.7383,
            14.7516,
            14.7649,
            14.7783,
            14.7916,
            14.8049,
            14.8183,
            14.8316,
            14.845,
            14.8583,
            14.8717,
            14.8851,
            14.8984,
            14.9118,
            14.9252,
            14.9386,
            14.952,
            14.9654,
            14.9788,
            14.9922,
            15.0057,
            15.0191,
            15.0325,
            15.046,
            15.0594,
            15.0729,
            15.0863,
            15.0998,
            15.1133,
            15.1268,
            15.1402,
            15.1537,
            15.1672,
            15.1807,
            15.1942,
            15.2077,
            15.2213,
            15.2348,
            15.2483,
            15.2619,
            15.2754,
            15.2889,
            15.3025,
            15.3161,
            15.3296,
            15.3432,
            15.3568,
            15.3704,
            15.3839,
            15.3975,
            15.4111,
            15.4248,
            15.4384,
            15.452,
            15.4656,
            15.4792,
            15.4929,
            15.5065,
            15.5202,
            15.5338,
            15.5475,
            15.5611,
            15.5748,
            15.5885,
            15.6022,
            15.6159,
            15.6296,
            15.6433,
            15.657,
            15.6707,
            15.6844,
            15.6981,
            15.7119,
            15.7256,
            15.7393,
            15.7531,
            15.7669,
            15.7806,
            15.7944,
            15.8082,
            15.8219,
            15.8357,
            15.8495,
            15.8633,
            15.8771,
            15.8909,
            15.9047,
            15.9185,
            15.9324,
            15.9462,
            15.96,
            15.9739,
            15.9877,
            16.0016,
            16.0155,
            16.0293,
            16.0432,
            16.0571,
            16.071,
            16.0849,
            16.0987,
            16.1127,
            16.1266,
            16.1405,
            16.1544,
            16.1683,
            16.1823,
            16.1962,
            16.2101,
            16.2241,
            16.2381,
            16.252,
            16.266,
            16.28,
            16.2939,
            16.3079,
            16.3219,
            16.3359,
            16.3499,
            16.3639,
            16.3779,
            16.392,
            16.406,
            16.42,
            16.4341,
            16.4481,
            16.4622,
            16.4762,
            16.4903,
            16.5044,
            16.5184,
            16.5325,
            16.5466,
            16.5607,
            16.5748,
            16.5889,
            16.603,
            16.6171,
            16.6313,
            16.6454,
            16.6595,
            16.6737,
            16.6878,
            16.702,
            16.7161,
            16.7303,
            16.7445,
            16.7586,
            16.7728,
            16.787,
            16.8012,
            16.8154,
            16.8296,
            16.8438,
            16.8581,
            16.8723,
            16.8865,
            16.9008,
            16.915,
            16.9292,
            16.9435,
            16.9578,
            16.972,
            16.9863,
            17.0006,
            17.0149,
            17.0292,
            17.0435,
            17.0578,
            17.0721,
            17.0864,
            17.1007,
            17.115,
            17.1294,
            17.1437,
            17.1581,
            17.1724,
            17.1868,
            17.2011,
            17.2155,
            17.2299,
            17.2443,
            17.2586,
            17.273,
            17.2874,
            17.3018,
            17.3162,
            17.3307,
            17.3451,
            17.3595,
            17.374,
            17.3884,
            17.4028,
            17.4173,
            17.4318,
            17.4462,
            17.4607,
            17.4752,
            17.4897,
            17.5041,
            17.5186,
            17.5331,
            17.5477,
            17.5622,
            17.5767,
            17.5912,
            17.6057,
            17.6203,
            17.6348,
            17.6494,
            17.6639,
            17.6785,
            17.6931,
            17.7076,
            17.7222,
            17.7368,
            17.7514,
            17.766,
            17.7806,
            17.7952,
            17.8098,
            17.8244,
            17.8391,
            17.8537,
            17.8684,
            17.883,
            17.8977,
            17.9123,
            17.927,
            17.9416,
            17.9563,
            17.971,
            17.9857,
            18.0004,
            18.0151,
            18.0298,
            18.0445,
            18.0592,
            18.074,
            18.0887,
            18.1034,
            18.1182,
            18.1329,
            18.1477,
            18.1624,
            18.1772,
            18.192,
            18.2068,
            18.2215,
            18.2363,
            18.2511,
            18.2659,
            18.2807,
            18.2956,
            18.3104,
            18.3252,
            18.34,
            18.3549,
            18.3697,
            18.3846,
            18.3994,
            18.4143,
            18.4292,
            18.4441,
            18.4589,
            18.4738,
            18.4887,
            18.5036,
            18.5185,
            18.5334,
            18.5484,
            18.5633,
            18.5782,
            18.5932,
            18.6081,
            18.6231,
            18.638,
            18.653,
            18.6679,
            18.6829,
            18.6979,
            18.7129,
            18.7279,
            18.7429,
            18.7579,
            18.7729,
            18.7879,
            18.8029,
            18.818,
            18.833,
            18.848,
            18.8631,
            18.8781,
            18.8932,
            18.9083,
            18.9233,
            18.9384,
            18.9535,
            18.9686,
            18.9837,
            18.9988,
            19.0139,
            19.029,
            19.0441,
            19.0592,
            19.0744,
            19.0895,
            19.1047,
            19.1198,
            19.135,
            19.1501,
            19.1653,
            19.1805,
            19.1957,
            19.2108,
            19.226,
            19.2412,
            19.2564,
            19.2717,
            19.2869,
            19.3021,
            19.3173,
            19.3326,
            19.3478,
            19.3631,
            19.3783,
            19.3936,
            19.4088,
            19.4241,
            19.4394,
            19.4547,
            19.47,
            19.4853,
            19.5006,
            19.5159,
            19.5312,
            19.5465,
            19.5619,
            19.5772,
            19.5925,
            19.6079,
            19.6232,
            19.6386,
            19.654,
            19.6693,
            19.6847,
            19.7001,
            19.7155,
            19.7309,
            19.7463,
            19.7617,
            19.7771,
            19.7925,
            19.8079,
            19.8234,
            19.8388,
            19.8543,
            19.8697,
            19.8852,
            19.9006,
            19.9161,
            19.9316,
            19.9471,
            19.9625,
            19.978,
            19.9935,
            20.009,
            20.0246,
            20.0401,
            20.0556,
            20.0711,
            20.0867,
            20.1022,
            20.1178,
            20.1333,
            20.1489,
            20.1644,
            20.18,
            20.1956,
            20.2112,
            20.2268,
            20.2424,
            20.258,
            20.2736,
            20.2892,
            20.3048,
            20.3205,
            20.3361,
            20.3517,
            20.3674,
            20.383,
            20.3987,
            20.4144,
            20.43,
            20.4457,
            20.4614,
            20.4771,
            20.4928,
            20.5085,
            20.5242,
            20.5399,
            20.5557,
            20.5714,
            20.5871,
            20.6029,
            20.6186,
            20.6344,
            20.6501,
            20.6659,
            20.6817,
            20.6974,
            20.7132,
            20.729,
            20.7448,
            20.7606,
            20.7764,
            20.7922,
            20.8081,
            20.8239,
            20.8397,
            20.8556,
            20.8714,
            20.8873,
            20.9031,
            20.919,
            20.9348,
            20.9507,
            20.9666,
            20.9825,
            20.9984,
            21.0143,
            21.0302,
            21.0461,
            21.062,
            21.078,
            21.0939,
            21.1098,
            21.1258,
            21.1417,
            21.1577,
            21.1737,
            21.1896,
            21.2056,
            21.2216,
            21.2376,
            21.2536,
            21.2696,
            21.2856,
            21.3016,
            21.3176,
            21.3336,
            21.3497,
            21.3657,
            21.3817,
            21.3978,
            21.4139,
            21.4299,
            21.446,
            21.4621,
            21.4781,
            21.4942,
            21.5103,
            21.5264,
            21.5425,
            21.5587,
            21.5748,
            21.5909,
            21.607,
            21.6232,
            21.6393,
            21.6555,
            21.6716,
            21.6878,
            21.704,
            21.7201,
            21.7363,
            21.7525,
            21.7687,
            21.7849,
            21.8011,
            21.8173,
            21.8335,
            21.8498,
            21.866,
            21.8822,
            21.8985,
            21.9147,
            21.931,
            21.9472,
            21.9635,
            21.9798,
            21.9961,
            22.0124,
            22.0286,
            22.0449,
            22.0613,
            22.0776,
            22.0939,
            22.1102,
            22.1265,
            22.1429,
            22.1592,
            22.1756,
            22.1919,
            22.2083,
            22.2247,
            22.241,
            22.2574,
            22.2738,
            22.2902,
            22.3066,
            22.323,
            22.3394,
            22.3558,
            22.3723,
            22.3887,
            22.4051,
            22.4216,
            22.438,
            22.4545,
            22.4709,
            22.4874,
            22.5039,
            22.5204,
            22.5369,
            22.5534,
            22.5699,
            22.5864,
            22.6029,
            22.6194,
            22.6359,
            22.6525,
            22.669,
            22.6855,
            22.7021,
            22.7186,
            22.7352,
            22.7518,
            22.7684,
            22.7849,
            22.8015,
            22.8181,
            22.8347,
            22.8513,
            22.8679,
            22.8846,
            22.9012,
            22.9178,
            22.9345,
            22.9511,
            22.9678,
            22.9844,
            23.0011,
            23.0177,
            23.0344,
            23.0511,
            23.0678,
            23.0845,
            23.1012,
            23.1179,
            23.1346,
            23.1513,
            23.1681,
            23.1848,
            23.2015,
            23.2183,
            23.235,
            23.2518,
            23.2686,
            23.2853,
            23.3021,
            23.3189,
            23.3357,
            23.3525,
            23.3693,
            23.3861,
            23.4029,
            23.4197,
            23.4366,
            23.4534,
            23.4702,
            23.4871,
            23.5039,
            23.5208,
            23.5377,
            23.5545,
            23.5714,
            23.5883,
            23.6052,
            23.6221,
            23.639,
            23.6559,
            23.6728,
            23.6897,
            23.7067,
            23.7236,
            23.7405,
            23.7575,
            23.7744,
            23.7914,
            23.8084,
            23.8253,
            23.8423,
            23.8593,
            23.8763,
            23.8933,
            23.9103,
            23.9273,
            23.9443,
            23.9614,
            23.9784,
            23.9954,
            24.0125,
            24.0295,
            24.0466,
            24.0636,
            24.0807,
            24.0978,
            24.1149,
            24.1319,
            24.149,
            24.1661,
            24.1832,
            24.2003,
            24.2175,
            24.2346,
            24.2517,
            24.2689,
            24.286,
            24.3032,
            24.3203,
            24.3375,
            24.3546,
            24.3718,
            24.389,
            24.4062,
            24.4234,
            24.4406,
            24.4578,
            24.475,
            24.4922,
            24.5095,
            24.5267,
            24.5439,
            24.5612,
            24.5784,
            24.5957,
            24.613,
            24.6302,
            24.6475,
            24.6648,
            24.6821,
            24.6994,
            24.7167,
            24.734,
            24.7513,
            24.7686,
            24.786,
            24.8033,
            24.8206,
            24.838,
            24.8553,
            24.8727,
            24.8901,
            24.9074,
            24.9248,
            24.9422,
            24.9596,
            24.9747
        ],
        "CF": [
            0.0,
            1.035,
            0.99,
            0.958,
            0.9424,
            0.9352,
            0.932,
            0.9308,
            0.9306,
            0.9308,
            0.9313,
            0.9319,
            0.9326,
            0.9333,
            0.934,
            0.9347,
            0.9354,
            0.9362,
            0.9369,
            0.9376,
            0.9383,
            0.939,
            0.9397,
            0.9404,
            0.9411,
            0.9418,
            0.9425,
            0.9433,
            0.944,
            0.9447,
            0.9454,
            0.9461,
            0.9468,
            0.9475,
            0.9482,
            0.9489,
            0.9496,
            0.9503,
            0.9509,
            0.9516,
            0.9523,
            0.953,
            0.9537,
            0.9544,
            0.9551,
            0.9558,
            0.9565,
            0.9572,
            0.9578,
            0.9585,
            0.9592,
            0.9599,
            0.9606,
            0.9612,
            0.9619,
            0.9626,
            0.9633,
            0.964,
            0.9646,
            0.9653,
            0.966,
            0.9667,
            0.9673,
            0.968,
            0.9687,
            0.9693,
            0.97,
            0.9707,
            0.9713,
            0.972,
            0.9727,
            0.9733,
            0.974,
            0.9746,
            0.9753,
            0.976,
            0.9766,
            0.9773,
            0.9779,
            0.9786,
            0.9792,
            0.9799,
            0.9806,
            0.9812,
            0.9819,
            0.9825,
            0.9832,
            0.9838,
            0.9844,
            0.9851,
            0.9857,
            0.9864,
            0.987,
            0.9877,
            0.9883,
            0.989,
            0.9896,
            0.9902,
            0.9909,
            0.9915,
            0.9921,
            0.9928,
            0.9934,
            0.994,
            0.9947,
            0.9953,
            0.9959,
            0.9966,
            0.9972,
            0.9978,
            0.9985,
            0.9991,
            0.9997,
            1.0003,
            1.001,
            1.0016,
            1.0022,
            1.0028,
            1.0034,
            1.0041,
            1.0047,
            1.0053,
            1.0059,
            1.0065,
            1.0072,
            1.0078,
            1.0084,
            1.009,
            1.0096,
            1.0102,
            1.0108,
            1.0114,
            1.012,
            1.0127,
            1.0133,
            1.0139,
            1.0145,
            1.0151,
            1.0157,
            1.0163,
            1.0169,
            1.0175,
            1.0181,
            1.0187,
            1.0193,
            1.0199,
            1.0205,
            1.0211,
            1.0217,
            1.0223,
            1.0229,
            1.0235,
            1.024,
            1.0246,
            1.0252,
            1.0258,
            1.0264,
            1.027,
            1.0276,
            1.0282,
            1.0288,
            1.0293,
            1.0299,
            1.0305,
            1.0311,
            1.0317,
            1.0322,
            1.0328,
            1.0334,
            1.034,
            1.0346,
            1.0351,
            1.0357,
            1.0363,
            1.0369,
            1.0374,
            1.038,
            1.0386,
            1.0392,
            1.0397,
            1.0403,
            1.0409,
            1.0414,
            1.042,
            1.0426,
            1.0431,
            1.0437,
            1.0443,
            1.0448,
            1.0454,
            1.046,
            1.0465,
            1.0471,
            1.0476,
            1.0482,
            1.0488,
            1.0493,
            1.0499,
            1.0504,
            1.051,
            1.0515,
            1.0521,
            1.0527,
            1.0532,
            1.0538,
            1.0543,
            1.0549,
            1.0554,
            1.056,
            1.0565,
            1.0571,
            1.0576,
            1.0581,
            1.0587,
            1.0592,
            1.0598,
            1.0603,
            1.0609,
            1.0614,
            1.0619,
            1.0625,
            1.063,
            1.0636,
            1.0641,
            1.0646,
            1.0652,
            1.0657,
            1.0662,
            1.0668,
            1.0673,
            1.0679,
            1.0684,
            1.0689,
            1.0694,
            1.07,
            1.0705,
            1.071,
            1.0716,
            1.0721,
            1.0726,
            1.0731,
            1.0737,
            1.0742,
            1.0747,
            1.0752,
            1.0758,
            1.0763,
            1.0768,
            1.0773,
            1.0778,
            1.0784,
            1.0789,
            1.0794,
            1.0799,
            1.0804,
            1.081,
            1.0815,
            1.082,
            1.0825,
            1.083,
            1.0835,
            1.084,
            1.0845,
            1.0851,
            1.0856,
            1.0861,
            1.0866,
            1.0871,
            1.0876,
            1.0881,
            1.0886,
            1.0891,
            1.0896,
            1.0901,
            1.0906,
            1.0911,
            1.0916,
            1.0921,
            1.0926,
            1.0931,
            1.0936,
            1.0941,
            1.0946,
            1.0951,
            1.0956,
            1.0961,
            1.0966,
            1.0971,
            1.0976,
            1.0981,
            1.0986,
            1.0991,
            1.0996,
            1.1001,
            1.1006,
            1.101,
            1.1015,
            1.102,
            1.1025,
            1.103,
            1.1035,
            1.104,
            1.1045,
            1.1049,
            1.1054,
            1.1059,
            1.1064,
            1.1069,
            1.1074,
            1.1078,
            1.1083,
            1.1088,
            1.1093,
            1.1098,
            1.1102,
            1.1107,
            1.1112,
            1.1117,
            1.1121,
            1.1126,
            1.1131,
            1.1136,
            1.114,
            1.1145,
            1.115,
            1.1154,
            1.1159,
            1.1164,
            1.1169,
            1.1173,
            1.1178,
            1.1183,
            1.1187,
            1.1192,
            1.1197,
            1.1201,
            1.1206,
            1.1211,
            1.1215,
            1.122,
            1.1224,
            1.1229,
            1.1234,
            1.1238,
            1.1243,
            1.1247,
            1.1252,
            1.1257,
            1.1261,
            1.1266,
            1.127,
            1.1275,
            1.1279,
            1.1284,
            1.1289,
            1.1293,
            1.1298,
            1.1302,
            1.1307,
            1.1311,
            1.1316,
            1.132,
            1.1325,
            1.1329,
            1.1334,
            1.1338,
            1.1343,
            1.1347,
            1.1351,
            1.1356,
            1.136,
            1.1365,
            1.1369,
            1.1374,
            1.1378,
            1.1383,
            1.1387,
            1.1391,
            1.1396,
            1.14,
            1.1405,
            1.1409,
            1.1413,
            1.1418,
            1.1422,
            1.1426,
            1.1431,
            1.1435,
            1.144,
            1.1444,
            1.1448,
            1.1453,
            1.1457,
            1.1461,
            1.1466,
            1.147,
            1.1474,
            1.1478,
            1.1483,
            1.1487,
            1.1491,
            1.1496,
            1.15,
            1.1504,
            1.1508,
            1.1513,
            1.1517,
            1.1521,
            1.1525,
            1.153,
            1.1534,
            1.1538,
            1.1542,
            1.1547,
            1.1551,
            1.1555,
            1.1559,
            1.1563,
            1.1568,
            1.1572,
            1.1576,
            1.158,
            1.1584,
            1.1588,
            1.1593,
            1.1597,
            1.1601,
            1.1605,
            1.1609,
            1.1613,
            1.1617,
            1.1622,
            1.1626,
            1.163,
            1.1634,
            1.1638,
            1.1642,
            1.1646,
            1.165,
            1.1654,
            1.1659,
            1.1663,
            1.1667,
            1.1671,
            1.1675,
            1.1679,
            1.1683,
            1.1687,
            1.1691,
            1.1695,
            1.1699,
            1.1703,
            1.1707,
            1.1711,
            1.1715,
            1.1719,
            1.1723,
            1.1727,
            1.1731,
            1.1735,
            1.1739,
            1.1743,
            1.1747,
            1.1751,
            1.1755,
            1.1759,
            1.1763,
            1.1767,
            1.1771,
            1.1775,
            1.1779,
            1.1783,
            1.1786,
            1.179,
            1.1794,
            1.1798,
            1.1802,
            1.1806,
            1.181,
            1.1814,
            1.1818,
            1.1822,
            1.1825,
            1.1829,
            1.1833,
            1.1837,
            1.1841,
            1.1845,
            1.1849,
            1.1852,
            1.1856,
            1.186,
            1.1864,
            1.1868,
            1.1872,
            1.1875,
            1.1879,
            1.1883,
            1.1887,
            1.1891,
            1.1894,
            1.1898,
            1.1902,
            1.1906,
            1.191,
            1.1913,
            1.1917,
            1.1921,
            1.1925,
            1.1928,
            1.1932,
            1.1936,
            1.194,
            1.1943,
            1.1947,
            1.1951,
            1.1955,
            1.1958,
            1.1962,
            1.1966,
            1.1969,
            1.1973,
            1.1977,
            1.198,
            1.1984,
            1.1988,
            1.1992,
            1.1995,
            1.1999,
            1.2003,
            1.2006,
            1.201,
            1.2013,
            1.2017,
            1.2021,
            1.2024,
            1.2028,
            1.2032,
            1.2035,
            1.2039,
            1.2043,
            1.2046,
            1.205,
            1.2053,
            1.2057,
            1.2061,
            1.2064,
            1.2068,
            1.2071,
            1.2075,
            1.2078,
            1.2082,
            1.2086,
            1.2089,
            1.2093,
            1.2096,
            1.21,
            1.2103,
            1.2107,
            1.211,
            1.2114,
            1.2118,
            1.2121,
            1.2125,
            1.2128,
            1.2132,
            1.2135,
            1.2139,
            1.2142,
            1.2146,
            1.2149,
            1.2153,
            1.2156,
            1.216,
            1.2163,
            1.2167,
            1.217,
            1.2173,
            1.2177,
            1.218,
            1.2184,
            1.2187,
            1.2191,
            1.2194,
            1.2198,
            1.2201,
            1.2204,
            1.2208,
            1.2211,
            1.2215,
            1.2218,
            1.2222,
            1.2225,
            1.2228,
            1.2232,
            1.2235,
            1.2239,
            1.2242,
            1.2245,
            1.2249,
            1.2252,
            1.2255,
            1.2259,
            1.2262,
            1.2265,
            1.2269,
            1.2272,
            1.2276,
            1.2279,
            1.2282,
            1.2286,
            1.2289,
            1.2292,
            1.2296,
            1.2299,
            1.2302,
            1.2305,
            1.2309,
            1.2312,
            1.2315,
            1.2319,
            1.2322,
            1.2325,
            1.2329,
            1.2332,
            1.2335,
            1.2338,
            1.2342,
            1.2345,
            1.2348,
            1.2351,
            1.2355,
            1.2358,
            1.2361,
            1.2364,
            1.2368,
            1.2371,
            1.2374,
            1.2377,
            1.2381,
            1.2384,
            1.2387,
            1.239,
            1.2393,
            1.2397,
            1.24,
            1.2403,
            1.2406,
            1.2409,
            1.2413,
            1.2416,
            1.2419,
            1.2422,
            1.2425,
            1.2428,
            1.2432,
            1.2435,
            1.2438,
            1.2441,
            1.2444,
            1.2447,
            1.2451,
            1.2454,
            1.2457,
            1.246,
            1.2463,
            1.2466,
            1.2469,
            1.2472,
            1.2476,
            1.2479,
            1.2482,
            1.2485,
            1.2488,
            1.2491,
            1.2494,
            1.2497,
            1.25,
            1.2503,
            1.2507,
            1.251,
            1.2513,
            1.2516,
            1.2519,
            1.2522,
            1.2525,
            1.2528,
            1.2531,
            1.2534,
            1.2537,
            1.254,
            1.2543,
            1.2546,
            1.2549,
            1.2552,
            1.2555,
            1.2558,
            1.2561,
            1.2564,
            1.2567,
            1.257,
            1.2574,
            1.2577,
            1.258,
            1.2583,
            1.2585,
            1.2588,
            1.2591,
            1.2594,
            1.2597,
            1.26,
            1.2603,
            1.2606,
            1.2609,
            1.2612,
            1.2615,
            1.2618,
            1.2621,
            1.2624,
            1.2627,
            1.263,
            1.2633,
            1.2636,
            1.2639,
            1.2642,
            1.2645,
            1.2648,
            1.2651,
            1.2653,
            1.2656,
            1.2659,
            1.2662,
            1.2665,
            1.2668,
            1.2671,
            1.2674,
            1.2677,
            1.268,
            1.2682,
            1.2685,
            1.2688,
            1.2691,
            1.2694,
            1.2697,
            1.27,
            1.2703,
            1.2705,
            1.2708,
            1.2711,
            1.2714,
            1.2717,
            1.272,
            1.2722,
            1.2725,
            1.2728,
            1.2731,
            1.2734,
            1.2737,
            1.2739,
            1.2742,
            1.2745,
            1.2748,
            1.2751,
            1.2754,
            1.2756,
            1.2759,
            1.2762,
            1.2765,
            1.2768,
            1.277,
            1.2773,
            1.2776,
            1.2779,
            1.2781,
            1.2784,
            1.2787,
            1.279,
            1.2793,
            1.2795,
            1.2798,
            1.2801,
            1.2804,
            1.2806,
            1.2809,
            1.2812,
            1.2815,
            1.2817,
            1.282,
            1.2823,
            1.2825,
            1.2828,
            1.2831,
            1.2834,
            1.2836,
            1.2839,
            1.2842,
            1.2844,
            1.2847,
            1.285,
            1.2853,
            1.2855,
            1.2858,
            1.2861,
            1.2863,
            1.2866,
            1.2869,
            1.2871,
            1.2874,
            1.2877,
            1.2879,
            1.2882,
            1.2885,
            1.2887,
            1.289,
            1.2893,
            1.2895,
            1.2898,
            1.2901,
            1.2903,
            1.2906,
            1.2909,
            1.2911,
            1.2914,
            1.2917,
            1.2919,
            1.2922,
            1.2924,
            1.2927,
            1.293,
            1.2932,
            1.2935,
            1.2937,
            1.294,
            1.2943,
            1.2945,
            1.2948,
            1.295,
            1.2953,
            1.2956,
            1.2958,
            1.2961,
            1.2963,
            1.2966,
            1.2969,
            1.2971,
            1.2974,
            1.2976,
            1.2979,
            1.2981,
            1.2984,
            1.2986,
            1.2989,
            1.2992,
            1.2994,
            1.2997,
            1.2999,
            1.3002,
            1.3004,
            1.3007,
            1.3009,
            1.3012,
            1.3014,
            1.3017,
            1.3019,
            1.3022,
            1.3024,
            1.3027,
            1.303,
            1.3032,
            1.3035,
            1.3037,
            1.304,
            1.3042,
            1.3045,
            1.3047,
            1.3049,
            1.3052,
            1.3054,
            1.3057,
            1.3059,
            1.3062,
            1.3064,
            1.3067,
            1.3069,
            1.3072,
            1.3074,
            1.3077,
            1.3079,
            1.3082,
            1.3084,
            1.3087,
            1.3089,
            1.3091,
            1.3094,
            1.3096,
            1.3099,
            1.3101,
            1.3104,
            1.3106,
            1.3108,
            1.3111,
            1.3113,
            1.3116,
            1.3118,
            1.3121,
            1.3123,
            1.3125,
            1.3128,
            1.313,
            1.3133,
            1.3135,
            1.3137,
            1.314,
            1.3142,
            1.3145,
            1.3147,
            1.3149,
            1.3152,
            1.3154,
            1.3156,
            1.3159,
            1.3161,
            1.3164,
            1.3166,
            1.3168,
            1.3171,
            1.3173,
            1.3175,
            1.3178,
            1.318,
            1.3182,
            1.3185,
            1.3187,
            1.3189,
            1.3192,
            1.3194,
            1.3196,
            1.3199,
            1.3201,
            1.3203,
            1.3206,
            1.3208,
            1.321,
            1.3213,
            1.3215,
            1.3217,
            1.322,
            1.3222,
            1.3224,
            1.3227,
            1.3229,
            1.3231,
            1.3234,
            1.3236,
            1.3238,
            1.324,
            1.3243,
            1.3245,
            1.3247,
            1.325,
            1.3252,
            1.3254,
            1.3256,
            1.3259,
            1.3261,
            1.3263,
            1.3265,
            1.3268,
            1.327,
            1.3272,
            1.3274,
            1.3277,
            1.3279,
            1.3281,
            1.3283,
            1.3286,
            1.3288,
            1.329,
            1.3292,
            1.3295,
            1.3297,
            1.3299,
            1.3301,
            1.3304,
            1.3306,
            1.3308,
            1.331,
            1.3312,
            1.3315,
            1.3317,
            1.3319,
            1.3321,
            1.3324,
            1.3326,
            1.3328,
            1.333,
            1.3332,
            1.3335,
            1.3337,
            1.3339,
            1.3341,
            1.3343,
            1.3345,
            1.3348,
            1.335,
            1.3352,
            1.3354,
            1.3356,
            1.3358,
            1.3361,
            1.3363,
            1.3365,
            1.3367,
            1.3369,
            1.3371,
            1.3374,
            1.3376,
            1.3378,
            1.338,
            1.3382,
            1.3384,
            1.3386,
            1.3389,
            1.3391,
            1.3393,
            1.3395,
            1.3397,
            1.3399,
            1.3401,
            1.3404,
            1.3406,
            1.3408,
            1.341,
            1.3412,
            1.3414,
            1.3416,
            1.3418,
            1.342,
            1.3423,
            1.3425,
            1.3427,
            1.3429,
            1.3431,
            1.3433,
            1.3435,
            1.3437,
            1.3439,
            1.3441,
            1.3444,
            1.3446,
            1.3448,
            1.345,
            1.3452,
            1.3454,
            1.3456,
            1.3458,
            1.346,
            1.3462,
            1.3464,
            1.3466,
            1.3468,
            1.347,
            1.3472,
            1.3475,
            1.3477,
            1.3479,
            1.3481,
            1.3483,
            1.3485,
            1.3487,
            1.3489,
            1.3491,
            1.3493,
            1.3495,
            1.3497,
            1.3499,
            1.3501,
            1.3503,
            1.3505,
            1.3507,
            1.3509,
            1.3511,
            1.3513,
            1.3515,
            1.3517,
            1.3519,
            1.3521,
            1.3523,
            1.3525,
            1.3527,
            1.3529,
            1.3531,
            1.3533,
            1.3535,
            1.3537,
            1.3539,
            1.3541,
            1.3543,
            1.3545,
            1.3547,
            1.3549,
            1.3551,
            1.3553,
            1.3555,
            1.3557,
            1.3559,
            1.3561,
            1.3563,
            1.3565,
            1.3567,
            1.3569,
            1.3571,
            1.3573,
            1.3575,
            1.3577,
            1.3579,
            1.358,
            1.3582,
            1.3584,
            1.3586,
            1.3588,
            1.359,
            1.3592,
            1.3594,
            1.3596,
            1.3598,
            1.36,
            1.3602,
            1.3604,
            1.3606,
            1.3608,
            1.361,
            1.3611,
            1.3613,
            1.3615,
            1.3617,
            1.3619,
            1.3621,
            1.3623,
            1.3625,
            1.3627,
            1.3629,
            1.3631,
            1.3632,
            1.3634,
            1.3636,
            1.3638,
            1.364,
            1.3642,
            1.3644,
            1.3646,
            1.3648,
            1.3649,
            1.3651,
            1.3653,
            1.3655,
            1.3657,
            1.3659,
            1.3661,
            1.3663,
            1.3664,
            1.3666,
            1.3668,
            1.367,
            1.3672,
            1.3674,
            1.3676,
            1.3677,
            1.3679,
            1.3681,
            1.3683,
            1.3685,
            1.3687,
            1.3689,
            1.369,
            1.3692,
            1.3694,
            1.3696,
            1.3698,
            1.37,
            1.3701,
            1.3703,
            1.3705,
            1.3707,
            1.3709,
            1.3711,
            1.3712,
            1.3714,
            1.3716,
            1.3718,
            1.372,
            1.3721,
            1.3723,
            1.3725,
            1.3727,
            1.3729,
            1.373,
            1.3732,
            1.3734,
            1.3736,
            1.3738,
            1.3739,
            1.3741,
            1.3743,
            1.3745,
            1.3747,
            1.3748,
            1.375,
            1.3752,
            1.3754,
            1.3756,
            1.3757,
            1.3759,
            1.3761,
            1.3763,
            1.3764,
            1.3766,
            1.3768,
            1.377,
            1.3771,
            1.3773,
            1.3775,
            1.3777,
            1.3779,
            1.378,
            1.3782,
            1.3784,
            1.3786,
            1.3787,
            1.3789,
            1.3791,
            1.3793,
            1.3794,
            1.3796,
            1.3798,
            1.3799,
            1.3801,
            1.3803,
            1.3805,
            1.3806,
            1.3808,
            1.381,
            1.3812,
            1.3813,
            1.3815,
            1.3817,
            1.3819,
            1.382,
            1.3822,
            1.3824,
            1.3825,
            1.3827,
            1.3829,
            1.3831,
            1.3832,
            1.3834,
            1.3836,
            1.3837,
            1.3839,
            1.3841,
            1.3842,
            1.3844,
            1.3846,
            1.3848,
            1.3849,
            1.3851,
            1.3853,
            1.3854,
            1.3856,
            1.3858,
            1.3859,
            1.3861,
            1.3863,
            1.3864,
            1.3866,
            1.3868,
            1.3869,
            1.3871,
            1.3873,
            1.3874,
            1.3876,
            1.3878,
            1.3879,
            1.3881,
            1.3883,
            1.3884,
            1.3886,
            1.3888,
            1.3889,
            1.3891,
            1.3893,
            1.3894,
            1.3896,
            1.3898,
            1.3899,
            1.3901,
            1.3903,
            1.3904,
            1.3906,
            1.3907,
            1.3909,
            1.3911,
            1.3912,
            1.3914,
            1.3916,
            1.3917,
            1.3919,
            1.392,
            1.3922,
            1.3924,
            1.3925,
            1.3927,
            1.3929,
            1.393,
            1.3932,
            1.3933,
            1.3935,
            1.3937,
            1.3938,
            1.394,
            1.3941,
            1.3943,
            1.3945,
            1.3946,
            1.3948,
            1.395,
            1.3951,
            1.3953,
            1.3954,
            1.3956,
            1.3957,
            1.3959,
            1.3961,
            1.3962,
            1.3964,
            1.3965,
            1.3967,
            1.3969,
            1.397,
            1.3972,
            1.3973,
            1.3975,
            1.3976,
            1.3978,
            1.398,
            1.3981,
            1.3983,
            1.3984,
            1.3986,
            1.3987,
            1.3989,
            1.3991,
            1.3992,
            1.3994,
            1.3995,
            1.3997,
            1.3998,
            1.4,
            1.4001,
            1.4003,
            1.4005,
            1.4006,
            1.4008,
            1.4009,
            1.4011,
            1.4012,
            1.4014,
            1.4015,
            1.4017,
            1.4018,
            1.402,
            1.4022,
            1.4023,
            1.4025,
            1.4026,
            1.4028,
            1.4029,
            1.4031,
            1.4032,
            1.4034,
            1.4035,
            1.4037,
            1.4038,
            1.404,
            1.4041,
            1.4043,
            1.4044,
            1.4046,
            1.4047,
            1.4049,
            1.405,
            1.4052,
            1.4053,
            1.4055,
            1.4056,
            1.4058,
            1.4059,
            1.4061,
            1.4062,
            1.4064,
            1.4065,
            1.4067,
            1.4068,
            1.407,
            1.4071,
            1.4073,
            1.4074,
            1.4076,
            1.4077,
            1.4079,
            1.408,
            1.4082,
            1.4083,
            1.4085,
            1.4086,
            1.4088,
            1.4089,
            1.4091,
            1.4092,
            1.4094,
            1.4095,
            1.4096,
            1.4098,
            1.4099,
            1.4101,
            1.4102,
            1.4104,
            1.4105,
            1.4107,
            1.4108,
            1.411,
            1.4111,
            1.4113,
            1.4114,
            1.4115,
            1.4117,
            1.4118,
            1.412,
            1.4121,
            1.4123,
            1.4124,
            1.4126,
            1.4127,
            1.4128,
            1.413,
            1.4131,
            1.4133,
            1.4134,
            1.4136,
            1.4137,
            1.4138,
            1.414,
            1.4141,
            1.4143,
            1.4144,
            1.4146,
            1.4147,
            1.4148,
            1.415,
            1.4151,
            1.4153,
            1.4154,
            1.4156,
            1.4157,
            1.4158,
            1.416,
            1.4161,
            1.4163,
            1.4164,
            1.4165,
            1.4167,
            1.4168,
            1.417,
            1.4171,
            1.4172,
            1.4174,
            1.4175,
            1.4177,
            1.4178,
            1.4179,
            1.4181,
            1.4182,
            1.4184,
            1.4185,
            1.4186,
            1.4188,
            1.4189,
            1.419,
            1.4192,
            1.4193,
            1.4195,
            1.4196,
            1.4197,
            1.4199,
            1.42,
            1.4201,
            1.4203,
            1.4204,
            1.4206,
            1.4207,
            1.4208,
            1.421,
            1.4211,
            1.4212,
            1.4214,
            1.4215,
            1.4217,
            1.4218,
            1.4219,
            1.4221,
            1.4222,
            1.4223,
            1.4225,
            1.4226,
            1.4227,
            1.4229,
            1.423,
            1.4231,
            1.4233,
            1.4234,
            1.4235,
            1.4237,
            1.4238,
            1.4239,
            1.4241,
            1.4242,
            1.4243,
            1.4245,
            1.4246,
            1.4248,
            1.4249,
            1.425,
            1.4251,
            1.4253,
            1.4254,
            1.4255,
            1.4257,
            1.4258,
            1.4259,
            1.4261,
            1.4262,
            1.4263,
            1.4265,
            1.4266,
            1.4267,
            1.4269,
            1.427,
            1.4271,
            1.4273,
            1.4274,
            1.4275,
            1.4277,
            1.4278,
            1.4279,
            1.428,
            1.4282,
            1.4283,
            1.4284,
            1.4286,
            1.4287,
            1.4288,
            1.429,
            1.4291,
            1.4292,
            1.4293,
            1.4295,
            1.4296,
            1.4297,
            1.4299,
            1.43,
            1.4301,
            1.4303,
            1.4304,
            1.4305,
            1.4306,
            1.4308,
            1.4309,
            1.431,
            1.4311,
            1.4313,
            1.4314,
            1.4315,
            1.4317,
            1.4318,
            1.4319,
            1.432,
            1.4322,
            1.4323,
            1.4324,
            1.4326,
            1.4327,
            1.4328,
            1.4329,
            1.4331,
            1.4332,
            1.4333,
            1.4334,
            1.4336,
            1.4337,
            1.4338,
            1.4339,
            1.4341,
            1.4342,
            1.4343,
            1.4344,
            1.4346,
            1.4347,
            1.4348,
            1.4349,
            1.4351,
            1.4352,
            1.4353,
            1.4354,
            1.4356,
            1.4357,
            1.4358,
            1.4359,
            1.4361,
            1.4362,
            1.4363,
            1.4364,
            1.4366,
            1.4367,
            1.4368,
            1.4369,
            1.437,
            1.4372,
            1.4373,
            1.4374,
            1.4375,
            1.4377,
            1.4378,
            1.4379,
            1.438,
            1.4381,
            1.4383,
            1.4384,
            1.4385,
            1.4386,
            1.4388,
            1.4389,
            1.439,
            1.4391,
            1.4392,
            1.4394,
            1.4395,
            1.4396,
            1.4397,
            1.4398,
            1.44,
            1.4401,
            1.4402,
            1.4402
        ]
    },
    "calculatedResults": {
        "DP. Thrust (kg)": 24.974697099203397,
        "Med. Thrust (kg)": 13.355798133583846,
        "CF (DP.)": 1.4401920207504655,
        "CF (Med.)": 1.257548674269832,
        "Vs (DP.)": 1445.799381463116,
        "Vs (Med.)": 1445.3617908512613,
        "Ts (DP.)": 1242.1540741999909,
        "Ts (Med.)": 1242.3386971150298,
        "Ps (DP.)": 101325.00000000007,
        "Ps (Med.)": 59775.464482992655,
        "It": 216.37175359060492,
        "Isp": 133.77369197007502,
        "AR": 4.073552018463872,
        "MS": 2.558433340302571,
        "Longitud (m)": 0.015201452694016446,
        "Rt (m)": 0.005,
        "R2 (m)": 0.010091521216427026,
        "PR_Crit0": 1.7410275697145507,
        "PR_Crit1": 0.9875068852712469,
        "PR_Crit2": 0.3244158434126038,
        "PR_Crit3": 0.046795704400299384
    }
}