{
    "Inputs": {
        "NozzleConfig": "TOPN-BN",
        "DefaultCheck": 0,
        "P1": 5311222.174480395,
        "n": 100.0,
        "EngineConfig": "Test-Engine.json",
        "specInputs": {
            "K1 (Factor Entrada):": 0.5,
            "K2 (Factor Garganta):": 0.5,
            "theta_t (deg):": 30.0,
            "theta_e (deg):": 6.0,
            "% (L. Cono):": 0.8,
            "% (Entrada):": 0.5
        }
    },
    "geometry_data": {
        "X (m)": [
            -0.1061,
            -0.1032,
            -0.1003,
            -0.0972,
            -0.0941,
            -0.091,
            -0.0878,
            -0.0845,
            -0.0812,
            -0.0778,
            -0.0743,
            -0.0708,
            -0.0672,
            -0.0636,
            -0.06,
            -0.0563,
            -0.0526,
            -0.0488,
            -0.045,
            -0.0411,
            -0.0373,
            -0.0334,
            -0.0295,
            -0.0255,
            -0.0216,
            -0.0176,
            -0.0136,
            -0.0096,
            -0.0056,
            -0.0016,
            0.0024,
            0.0064,
            0.0104,
            0.0144,
            0.0184,
            0.0224,
            0.0263,
            0.0302,
            0.0342,
            0.038,
            0.0419,
            0.0457,
            0.0495,
            0.0533,
            0.057,
            0.0607,
            0.0644,
            0.068,
            0.0715,
            0.075,
            0.075,
            0.1066,
            0.1382,
            0.1698,
            0.2014,
            0.2331,
            0.2647,
            0.2964,
            0.3281,
            0.3598,
            0.3916,
            0.4233,
            0.4551,
            0.4869,
            0.5187,
            0.5505,
            0.5824,
            0.6142,
            0.6461,
            0.678,
            0.7099,
            0.7418,
            0.7737,
            0.8057,
            0.8377,
            0.8697,
            0.9017,
            0.9337,
            0.9657,
            0.9978,
            1.0299,
            1.062,
            1.0941,
            1.1262,
            1.1583,
            1.1905,
            1.2227,
            1.2549,
            1.2871,
            1.3193,
            1.3516,
            1.3838,
            1.4161,
            1.4484,
            1.4807,
            1.5131,
            1.5454,
            1.5778,
            1.6102,
            1.6426
        ],
        "Y (m)": [
            0.3439,
            0.3411,
            0.3384,
            0.3358,
            0.3332,
            0.3308,
            0.3284,
            0.3261,
            0.3239,
            0.3217,
            0.3197,
            0.3178,
            0.3159,
            0.3142,
            0.3125,
            0.311,
            0.3095,
            0.3082,
            0.3069,
            0.3058,
            0.3047,
            0.3038,
            0.3029,
            0.3022,
            0.3016,
            0.301,
            0.3006,
            0.3003,
            0.3001,
            0.3,
            0.3,
            0.3001,
            0.3004,
            0.3007,
            0.3011,
            0.3017,
            0.3023,
            0.3031,
            0.3039,
            0.3049,
            0.306,
            0.3071,
            0.3084,
            0.3098,
            0.3113,
            0.3128,
            0.3145,
            0.3163,
            0.3181,
            0.3201,
            0.3201,
            0.3382,
            0.3559,
            0.3734,
            0.3906,
            0.4075,
            0.424,
            0.4403,
            0.4562,
            0.4719,
            0.4873,
            0.5023,
            0.5171,
            0.5315,
            0.5457,
            0.5595,
            0.573,
            0.5863,
            0.5992,
            0.6118,
            0.6242,
            0.6362,
            0.6479,
            0.6593,
            0.6705,
            0.6813,
            0.6918,
            0.702,
            0.7119,
            0.7215,
            0.7308,
            0.7398,
            0.7485,
            0.7569,
            0.765,
            0.7728,
            0.7803,
            0.7875,
            0.7944,
            0.801,
            0.8072,
            0.8132,
            0.8189,
            0.8243,
            0.8293,
            0.8341,
            0.8386,
            0.8427,
            0.8466,
            0.8502
        ],
        "AR (m)": [
            1.3143,
            1.2931,
            1.2725,
            1.2528,
            1.2338,
            1.2155,
            1.198,
            1.1813,
            1.1653,
            1.1501,
            1.1356,
            1.1219,
            1.1089,
            1.0967,
            1.0852,
            1.0744,
            1.0644,
            1.0551,
            1.0465,
            1.0387,
            1.0316,
            1.0252,
            1.0196,
            1.0146,
            1.0104,
            1.0069,
            1.0041,
            1.0021,
            1.0007,
            1.0001,
            1.0001,
            1.0009,
            1.0024,
            1.0046,
            1.0076,
            1.0112,
            1.0156,
            1.0206,
            1.0264,
            1.033,
            1.0402,
            1.0482,
            1.0569,
            1.0663,
            1.0765,
            1.0874,
            1.0991,
            1.1115,
            1.1246,
            1.1385,
            1.1385,
            1.2707,
            1.4078,
            1.5494,
            1.6951,
            1.8447,
            1.9977,
            2.1539,
            2.3129,
            2.4744,
            2.638,
            2.8035,
            2.9706,
            3.1389,
            3.3082,
            3.4782,
            3.6485,
            3.8191,
            3.9894,
            4.1594,
            4.3288,
            4.4972,
            4.6645,
            4.8304,
            4.9947,
            5.1572,
            5.3176,
            5.4758,
            5.6314,
            5.7845,
            5.9346,
            6.0817,
            6.2256,
            6.3661,
            6.503,
            6.6361,
            6.7654,
            6.8906,
            7.0116,
            7.1283,
            7.2405,
            7.3481,
            7.451,
            7.5491,
            7.6423,
            7.7304,
            7.8134,
            7.8912,
            7.9636,
            8.0307
        ]
    },
    "timeResults_data": {
        "Tiempo (s)": [
            0.2323,
            0.3081,
            0.3839,
            0.4597,
            0.5355,
            0.6112,
            0.687,
            0.7627,
            0.8384,
            0.9141,
            0.9898,
            1.0655,
            1.1412,
            1.2169,
            1.2925,
            1.3682,
            1.4438,
            1.5195,
            1.5951,
            1.6707,
            1.7463,
            1.8219,
            1.8974,
            1.973,
            2.0485,
            2.1241,
            2.1996,
            2.2751,
            2.3506,
            2.4261,
            2.5016,
            2.5771,
            2.6526,
            2.728,
            2.8035,
            2.8789,
            2.9543,
            3.0298,
            3.1052,
            3.1805,
            3.2559,
            3.3313,
            3.4067,
            3.482,
            3.5573,
            3.6327,
            3.708,
            3.7833,
            3.8586,
            3.9339,
            4.0092,
            4.0844,
            4.1597,
            4.2349,
            4.3102,
            4.3854,
            4.4606,
            4.5358,
            4.611,
            4.6862,
            4.7613,
            4.8365,
            4.9116,
            4.9868,
            5.0619,
            5.137,
            5.2121,
            5.2872,
            5.3623,
            5.4374,
            5.5125,
            5.5875,
            5.6626,
            5.7376,
            5.8126,
            5.8876,
            5.9626,
            6.0376,
            6.1126,
            6.1876,
            6.2625,
            6.3375,
            6.4124,
            6.4874,
            6.5623,
            6.6372,
            6.7121,
            6.787,
            6.8618,
            6.9367,
            7.0116,
            7.0864,
            7.1613,
            7.2361,
            7.3109,
            7.3857,
            7.4605,
            7.5353,
            7.61,
            7.6848,
            7.7596,
            7.8343,
            7.909,
            7.9838,
            8.0585,
            8.1332,
            8.2079,
            8.2825,
            8.3572,
            8.4319,
            8.5065,
            8.5812,
            8.6558,
            8.7304,
            8.805,
            8.8796,
            8.9542,
            9.0288,
            9.1034,
            9.1779,
            9.2525,
            9.327,
            9.4015,
            9.476,
            9.5506,
            9.625,
            9.6995,
            9.774,
            9.8485,
            9.9229,
            9.9974,
            10.0718,
            10.1462,
            10.2207,
            10.2951,
            10.3694,
            10.4438,
            10.5182,
            10.5926,
            10.6669,
            10.7413,
            10.8156,
            10.8899,
            10.9642,
            11.0385,
            11.1128,
            11.1871,
            11.2614,
            11.3357,
            11.4099,
            11.4841,
            11.5584,
            11.6326,
            11.7068,
            11.781,
            11.8552,
            11.9294,
            12.0036,
            12.0777,
            12.1519,
            12.226,
            12.3001,
            12.3743,
            12.4484,
            12.5225,
            12.5966,
            12.6707,
            12.7447,
            12.8188,
            12.8928,
            12.9669,
            13.0409,
            13.1149,
            13.1889,
            13.2629,
            13.3369,
            13.4109,
            13.4849,
            13.5589,
            13.6328,
            13.7067,
            13.7807,
            13.8546,
            13.9285,
            14.0024,
            14.0763,
            14.1502,
            14.2241,
            14.2979,
            14.3718,
            14.4456,
            14.5194,
            14.5933,
            14.6671,
            14.7409,
            14.8147,
            14.8885,
            14.9622,
            15.036,
            15.1097,
            15.1835,
            15.2572,
            15.3309,
            15.4047,
            15.4784,
            15.5521,
            15.6257,
            15.6994,
            15.7731,
            15.8467,
            15.9204,
            15.994,
            16.0676,
            16.1413,
            16.2149,
            16.2885,
            16.362,
            16.4356,
            16.5092,
            16.5827,
            16.6563,
            16.7298,
            16.8034,
            16.8769,
            16.9504,
            17.0239,
            17.0974,
            17.1708,
            17.2443,
            17.3178,
            17.3912,
            17.4647,
            17.5381,
            17.6115,
            17.6849,
            17.7583,
            17.8317,
            17.9051,
            17.9785,
            18.0518,
            18.1252,
            18.1985,
            18.2718,
            18.3452,
            18.4185,
            18.4918,
            18.5651,
            18.6384,
            18.7116,
            18.7849,
            18.8582,
            18.9314,
            19.0046,
            19.0779,
            19.1511,
            19.2243,
            19.2975,
            19.3707,
            19.4438,
            19.517,
            19.5902,
            19.6633,
            19.7365,
            19.8096,
            19.8827,
            19.9558,
            20.0289,
            20.102,
            20.1751,
            20.2482,
            20.3212,
            20.3943,
            20.4673,
            20.5404,
            20.6134,
            20.6864,
            20.7594,
            20.8324,
            20.9054,
            20.9784,
            21.0513,
            21.1243,
            21.1972,
            21.2702,
            21.3431,
            21.416,
            21.4889,
            21.5618,
            21.6347,
            21.7076,
            21.7805,
            21.8533,
            21.9262,
            21.999,
            22.0719,
            22.1447,
            22.2175,
            22.2903,
            22.3631,
            22.4359,
            22.5087,
            22.5815,
            22.6542,
            22.727,
            22.7997,
            22.8724,
            22.9451,
            23.0179,
            23.0906,
            23.1633,
            23.2359,
            23.3086,
            23.3813,
            23.4539,
            23.5266,
            23.5992,
            23.6718,
            23.7445,
            23.8171,
            23.8897,
            23.9623,
            24.0348,
            24.1074,
            24.18,
            24.2525,
            24.3251,
            24.3976,
            24.4701,
            24.5426,
            24.6151,
            24.6876,
            24.7601,
            24.8326,
            24.9051,
            24.9775,
            25.05,
            25.1224,
            25.1948,
            25.2673,
            25.3397,
            25.4121,
            25.4845,
            25.5569,
            25.6292,
            25.7016,
            25.774,
            25.8463,
            25.9186,
            25.991,
            26.0633,
            26.1356,
            26.2079,
            26.2802,
            26.3525,
            26.4247,
            26.497,
            26.5693,
            26.6415,
            26.7137,
            26.786,
            26.8582,
            26.9304,
            27.0026,
            27.0748,
            27.147,
            27.2191,
            27.2913,
            27.3635,
            27.4356,
            27.5077,
            27.5799,
            27.652,
            27.7241,
            27.7962,
            27.8683,
            27.9403,
            28.0124,
            28.0845,
            28.1565,
            28.2286,
            28.3006,
            28.3726,
            28.4447,
            28.5167,
            28.5887,
            28.6606,
            28.7326,
            28.8046,
            28.8766,
            28.9485,
            29.0205,
            29.0924,
            29.1643,
            29.2362,
            29.3081,
            29.38,
            29.4519,
            29.5238,
            29.5957,
            29.6675,
            29.7394,
            29.8112,
            29.8831,
            29.9549,
            30.0267,
            30.0985,
            30.1703,
            30.2421,
            30.3139,
            30.3857,
            30.4574,
            30.5292,
            30.6009,
            30.6726,
            30.7444,
            30.8161,
            30.8878,
            30.9595,
            31.0312,
            31.1029,
            31.1745,
            31.2462,
            31.3179,
            31.3895,
            31.4611,
            31.5328,
            31.6044,
            31.676,
            31.7476,
            31.8192,
            31.8908,
            31.9623,
            32.0339,
            32.1055,
            32.177,
            32.2486,
            32.3201,
            32.3916,
            32.4631,
            32.5346,
            32.6061,
            32.6776,
            32.7491,
            32.8205,
            32.892,
            32.9634,
            33.0349,
            33.1063,
            33.1777,
            33.2491,
            33.3206,
            33.3919,
            33.4633,
            33.5347,
            33.6061,
            33.6774,
            33.7488,
            33.8201,
            33.8915,
            33.9628,
            34.0341,
            34.1054,
            34.1767,
            34.248,
            34.3193,
            34.3906,
            34.4618,
            34.5331,
            34.6043,
            34.6756,
            34.7468,
            34.818,
            34.8892,
            34.9604,
            35.0316,
            35.1028,
            35.174,
            35.2451,
            35.3163,
            35.3874,
            35.4586,
            35.5297,
            35.6008,
            35.6719,
            35.7431,
            35.8142,
            35.8852,
            35.9563,
            36.0274,
            36.0984,
            36.1695,
            36.2405,
            36.3116,
            36.3826,
            36.4536,
            36.5246,
            36.5956,
            36.6666,
            36.7376,
            36.8086,
            36.8796,
            36.9505,
            37.0215,
            37.0924,
            37.1633,
            37.2342,
            37.3052,
            37.3761,
            37.447,
            37.5179,
            37.5887,
            37.6596,
            37.7305,
            37.8013,
            37.8722,
            37.943,
            38.0138,
            38.0846,
            38.1555,
            38.2263,
            38.297,
            38.3678,
            38.4386,
            38.5094,
            38.5801,
            38.6509,
            38.7216,
            38.7924,
            38.8631,
            38.9338,
            39.0045,
            39.0752,
            39.1459,
            39.2166,
            39.2872,
            39.3579,
            39.4286,
            39.4992,
            39.5698,
            39.6405,
            39.7111,
            39.7817,
            39.8523,
            39.9229,
            39.9935,
            40.0641,
            40.1346,
            40.2052,
            40.2758,
            40.3463,
            40.4168,
            40.4874,
            40.5579,
            40.6284,
            40.6989,
            40.7694,
            40.8399,
            40.9103,
            40.9808,
            41.0513,
            41.1217,
            41.1922,
            41.2626,
            41.333,
            41.4034,
            41.4739,
            41.5443,
            41.6146,
            41.685,
            41.7554,
            41.8258,
            41.8961,
            41.9665,
            42.0368,
            42.1071,
            42.1775,
            42.2478,
            42.3181,
            42.3884,
            42.4587,
            42.529,
            42.5992,
            42.6695,
            42.7398,
            42.81,
            42.8802,
            42.9505,
            43.0207,
            43.0909,
            43.1611,
            43.2313,
            43.3015,
            43.3717,
            43.4419,
            43.512,
            43.5822,
            43.6523,
            43.7225,
            43.7926,
            43.8627,
            43.9328,
            44.0029,
            44.073,
            44.1431,
            44.2132,
            44.2833,
            44.3534,
            44.4234,
            44.4935,
            44.5635,
            44.6335,
            44.7036,
            44.7736,
            44.8436,
            44.9136,
            44.9836,
            45.0535,
            45.1235,
            45.1935,
            45.2634,
            45.3334,
            45.4033,
            45.4733,
            45.5432,
            45.6131,
            45.683,
            45.7529,
            45.8228,
            45.8927,
            45.9625,
            46.0324,
            46.1023,
            46.1721,
            46.242,
            46.3118,
            46.3816,
            46.4514,
            46.5212,
            46.591,
            46.6608,
            46.7306,
            46.8004,
            46.8702,
            46.9399,
            47.0097,
            47.0794,
            47.1491,
            47.2189,
            47.2886,
            47.3583,
            47.428,
            47.4977,
            47.5674,
            47.637,
            47.7067,
            47.7764,
            47.846,
            47.9157,
            47.9853,
            48.0549,
            48.1246,
            48.1942,
            48.2638,
            48.3334,
            48.403,
            48.4725,
            48.5421,
            48.6117,
            48.6812,
            48.7508,
            48.8203,
            48.8898,
            48.9594,
            49.0289,
            49.0984,
            49.1679,
            49.2374,
            49.3068,
            49.3763,
            49.4458,
            49.5152,
            49.5847,
            49.6541,
            49.7236,
            49.793,
            49.8624,
            49.9318,
            50.0012,
            50.0706,
            50.14,
            50.2094,
            50.2787,
            50.3481,
            50.4174,
            50.4868,
            50.5561,
            50.6255,
            50.6948,
            50.7641,
            50.8334,
            50.9027,
            50.972,
            51.0413,
            51.1105,
            51.1798,
            51.249,
            51.3183,
            51.3875,
            51.4568,
            51.526,
            51.5952,
            51.6644,
            51.7336,
            51.8028,
            51.872,
            51.9412,
            52.0103,
            52.0795,
            52.1487,
            52.2178,
            52.2869,
            52.3561,
            52.4252,
            52.4943,
            52.5634,
            52.6325,
            52.7016,
            52.7707,
            52.8397,
            52.9088,
            52.9779,
            53.0469,
            53.1159,
            53.185,
            53.254,
            53.323,
            53.392,
            53.461,
            53.53,
            53.599,
            53.668,
            53.737,
            53.8059,
            53.8749,
            53.9438,
            54.0128,
            54.0817,
            54.1506,
            54.2195,
            54.2884,
            54.3573,
            54.4262,
            54.4951,
            54.564,
            54.6328,
            54.7017,
            54.7706,
            54.8394,
            54.9082,
            54.9771,
            55.0459,
            55.1147,
            55.1835,
            55.2523,
            55.3211,
            55.3899,
            55.4586,
            55.5274,
            55.5962,
            55.6649,
            55.7337,
            55.8024,
            55.8711,
            55.9398,
            56.0085,
            56.0772,
            56.1459,
            56.2146,
            56.2833,
            56.352,
            56.4206,
            56.4893,
            56.558,
            56.6266,
            56.6952,
            56.7638,
            56.8325,
            56.9011,
            56.9697,
            57.0383,
            57.1069,
            57.1754,
            57.244,
            57.3126,
            57.3811,
            57.4497,
            57.5182,
            57.5867,
            57.6553,
            57.7238,
            57.7923,
            57.8608,
            57.9293,
            57.9978,
            58.0663,
            58.1347,
            58.2032,
            58.2716,
            58.3401,
            58.4085,
            58.477,
            58.5454,
            58.6138,
            58.6822,
            58.7506,
            58.819,
            58.8874,
            58.9558,
            59.0241,
            59.0925,
            59.1609,
            59.2292,
            59.2975,
            59.3659,
            59.4342,
            59.5025,
            59.5708,
            59.6391,
            59.7074,
            59.7757,
            59.844,
            59.9123,
            59.9805,
            60.0488,
            60.117,
            60.1853,
            60.2535,
            60.3217,
            60.3899,
            60.4581,
            60.5263,
            60.5945,
            60.6627,
            60.7309,
            60.7991,
            60.8672,
            60.9354,
            61.0036,
            61.0717,
            61.1398,
            61.208,
            61.2761,
            61.3442,
            61.4123,
            61.4804,
            61.5485,
            61.6165,
            61.6846,
            61.7527,
            61.8207,
            61.8888,
            61.9568,
            62.0249,
            62.0929,
            62.1609,
            62.2289,
            62.2969,
            62.3649,
            62.4329,
            62.5009,
            62.5689,
            62.6369,
            62.7048,
            62.7728,
            62.8407,
            62.9087,
            62.9766,
            63.0445,
            63.1124,
            63.1803,
            63.2482,
            63.3161,
            63.384,
            63.4519,
            63.5198,
            63.5876,
            63.6555,
            63.7233,
            63.7912,
            63.859,
            63.9268,
            63.9946,
            64.0624,
            64.1302,
            64.198,
            64.2658,
            64.3336,
            64.4014,
            64.4691,
            64.5369,
            64.6047,
            64.6724,
            64.7401,
            64.8079,
            64.8756,
            64.9433,
            65.011,
            65.0787,
            65.1464,
            65.2141,
            65.2818,
            65.3494,
            65.4171,
            65.4847,
            65.5524,
            65.62,
            65.6877,
            65.7553,
            65.8229,
            65.8905,
            65.9581,
            66.0257,
            66.0933,
            66.1609,
            66.2284,
            66.296,
            66.3636,
            66.4311,
            66.4987,
            66.5662,
            66.6337,
            66.7013,
            66.7688,
            66.8363,
            66.9038,
            66.9713,
            67.0387,
            67.1062,
            67.1737,
            67.2412,
            67.3086,
            67.3761,
            67.4435,
            67.5109,
            67.5784,
            67.6458,
            67.7132,
            67.7806,
            67.848,
            67.9154,
            67.9828,
            68.0501,
            68.1175,
            68.1849,
            68.2522,
            68.3196,
            68.3869,
            68.4542,
            68.5216,
            68.5889,
            68.6562,
            68.7235,
            68.7908,
            68.8581,
            68.9253,
            68.9926,
            69.0599,
            69.1271,
            69.1944,
            69.2616,
            69.3289,
            69.3961,
            69.4633,
            69.5305,
            69.5977,
            69.6649,
            69.7321,
            69.7993,
            69.8665,
            69.9337,
            70.0008,
            70.068,
            70.1351,
            70.2023,
            70.2694,
            70.3365,
            70.4037,
            70.4708,
            70.5379,
            70.605,
            70.6721,
            70.7392,
            70.8062,
            70.8733,
            70.9404,
            71.0074,
            71.0745,
            71.1415,
            71.2085,
            71.2756,
            71.3426,
            71.4096,
            71.4766,
            71.5436,
            71.6106,
            71.6776,
            71.7446,
            71.8115,
            71.8785,
            71.9454,
            72.0124,
            72.0793,
            72.1463,
            72.2132,
            72.2801,
            72.347,
            72.4139,
            72.4808,
            72.5477,
            72.6146,
            72.6815,
            72.7484,
            72.8152,
            72.8821,
            72.9489,
            73.0158,
            73.0826,
            73.1494,
            73.2162,
            73.2831,
            73.3499,
            73.4167,
            73.4834,
            73.5502,
            73.617,
            73.6838,
            73.7505,
            73.8173,
            73.884,
            73.9508,
            74.0175,
            74.0842,
            74.151,
            74.2177,
            74.2844,
            74.3511,
            74.4178,
            74.4845,
            74.5511,
            74.6178,
            74.6845,
            74.7511,
            74.8178,
            74.8844,
            74.9511,
            75.0177,
            75.0843,
            75.1509,
            75.2175,
            75.2841,
            75.3507,
            75.4173,
            75.4839,
            75.5505,
            75.617,
            75.6836,
            75.7501,
            75.8167,
            75.8832,
            75.9498,
            76.0163,
            76.0828,
            76.1493,
            76.2158,
            76.2823,
            76.3488,
            76.4153,
            76.4817,
            76.5482,
            76.6147,
            76.6811,
            76.7476,
            76.814,
            76.8804,
            76.9469,
            77.0133,
            77.0797,
            77.1461,
            77.2125,
            77.2789,
            77.3453,
            77.4117,
            77.478,
            77.5444,
            77.6107,
            77.6771,
            77.7434,
            77.8098,
            77.8761,
            77.9424,
            78.0087,
            78.075,
            78.1413,
            78.2076,
            78.2739,
            78.3402,
            78.4065,
            78.4727,
            78.539,
            78.6053,
            78.6715,
            78.7377,
            78.804,
            78.8702,
            78.9364,
            79.0026,
            79.0688,
            79.135,
            79.2012,
            79.2674,
            79.3336,
            79.3997,
            79.4659,
            79.5321,
            79.5982,
            79.6644,
            79.7305,
            79.7966,
            79.8627,
            79.9289,
            79.995,
            80.0611,
            80.1272,
            80.1932,
            80.2593,
            80.3254,
            80.3915,
            80.4575,
            80.5236,
            80.5896,
            80.6557,
            80.7217,
            80.7877,
            80.8537,
            80.9197,
            80.9858,
            81.0517,
            81.1177,
            81.1837,
            81.2497,
            81.3157,
            81.3816,
            81.4476,
            81.5135,
            81.5795,
            81.6454,
            81.7114,
            81.7773,
            81.8432,
            81.9091,
            81.975,
            82.0409,
            82.1068,
            82.1727,
            82.2386,
            82.3044,
            82.3703,
            82.4361,
            82.502,
            82.5678,
            82.6337,
            82.6995,
            82.7653,
            82.8311,
            82.8969,
            82.9627,
            83.0285,
            83.0943,
            83.1601,
            83.2259,
            83.2916,
            83.3574,
            83.4232,
            83.4889,
            83.5546,
            83.6204,
            83.6861,
            83.7518,
            83.8175,
            83.8833,
            83.949,
            84.0146,
            84.0803,
            84.146,
            84.2117,
            84.2774,
            84.343,
            84.4087,
            84.4743,
            84.54,
            84.6056,
            84.6712,
            84.7368,
            84.8024,
            84.8681,
            84.9337,
            84.9992,
            85.0648,
            85.1304,
            85.196,
            85.2616,
            85.3271,
            85.3927,
            85.4582,
            85.5237,
            85.5893,
            85.6548,
            85.7203,
            85.7858,
            85.8513,
            85.9168,
            85.9823,
            86.0478,
            86.1133,
            86.1788,
            86.2442,
            86.3097,
            86.3752,
            86.4406,
            86.506,
            86.5715,
            86.6369,
            86.7023,
            86.7677,
            86.8331,
            86.8985,
            86.9639,
            87.0293,
            87.0947,
            87.1601,
            87.2255,
            87.2908,
            87.3562,
            87.4215,
            87.4869,
            87.5522,
            87.6175,
            87.6828,
            87.7482,
            87.8135,
            87.8788,
            87.9441,
            88.0093,
            88.0746,
            88.1399,
            88.2052,
            88.2704,
            88.3357,
            88.4009,
            88.4662,
            88.5314,
            88.5966,
            88.6619,
            88.7271,
            88.7923,
            88.8575,
            88.9227,
            88.9879,
            89.0531,
            89.1182,
            89.1834,
            89.2486,
            89.3137,
            89.3789,
            89.444,
            89.5092,
            89.5743,
            89.6394,
            89.7045,
            89.7696,
            89.8348,
            89.8998,
            89.9649,
            90.03,
            90.0951,
            90.1602,
            90.2252,
            90.2903,
            90.3554,
            90.4204,
            90.4854,
            90.5505,
            90.6155,
            90.6805,
            90.7455,
            90.8105,
            90.8755,
            90.9405,
            91.0055,
            91.0705,
            91.1355,
            91.2004,
            91.2654,
            91.3304,
            91.3953,
            91.4603,
            91.5252,
            91.5901,
            91.655,
            91.72,
            91.7849,
            91.8498,
            91.9147,
            91.9796,
            92.0445,
            92.1093,
            92.1742,
            92.2391,
            92.3039,
            92.3688,
            92.4336,
            92.4985,
            92.5633,
            92.6281,
            92.6929,
            92.7578,
            92.8226,
            92.8874,
            92.9522,
            93.0169,
            93.0817,
            93.1465,
            93.2113,
            93.276,
            93.3408,
            93.4055,
            93.4703,
            93.535,
            93.5998,
            93.6645,
            93.7292,
            93.7939,
            93.8586,
            93.9233,
            93.988,
            94.0527,
            94.1174,
            94.182,
            94.2467,
            94.3114,
            94.376,
            94.4407,
            94.5053,
            94.5699,
            94.6346,
            94.6992,
            94.7638,
            94.8284,
            94.893,
            94.9576,
            95.0222,
            95.0868,
            95.1514,
            95.2159,
            95.2805,
            95.3451,
            95.4096,
            95.4742,
            95.5387,
            95.6032,
            95.6678,
            95.7323,
            95.7968,
            95.8613,
            95.9258,
            95.9903,
            96.0548,
            96.1193,
            96.1837,
            96.2482,
            96.3127,
            96.3771,
            96.4416,
            96.506,
            96.5705,
            96.6349,
            96.6993,
            96.7638,
            96.8282,
            96.8926,
            96.957,
            97.0214,
            97.0858,
            97.1501,
            97.2145,
            97.2789,
            97.3432,
            97.4076,
            97.472,
            97.5363,
            97.6006,
            97.665,
            97.7293,
            97.7936,
            97.8579,
            97.9222,
            97.9865,
            98.0508,
            98.1151,
            98.1794,
            98.2437,
            98.3079,
            98.3722,
            98.4365,
            98.5007,
            98.565,
            98.6292,
            98.6934,
            98.7577,
            98.8219,
            98.8861,
            98.9503,
            99.0145,
            99.0787,
            99.1429,
            99.2071,
            99.2712,
            99.3354,
            99.3996,
            99.4637,
            99.5279,
            99.592,
            99.6562,
            99.7203,
            99.7844,
            99.8485,
            99.9126,
            99.9768,
            100.0409,
            100.105,
            100.169,
            100.2331,
            100.2972,
            100.3613,
            100.4253,
            100.4894,
            100.5534,
            100.6175,
            100.6815,
            100.7456,
            100.8096,
            100.8736,
            100.9376,
            101.0016,
            101.0656,
            101.1296,
            101.1936,
            101.2576,
            101.3216,
            101.3856,
            101.4495,
            101.5135,
            101.5774,
            101.6414,
            101.7053,
            101.7693,
            101.8332,
            101.8971,
            101.961,
            102.0249,
            102.0888,
            102.1527,
            102.2166,
            102.2805,
            102.3444,
            102.4083,
            102.4721,
            102.536,
            102.5999,
            102.6637,
            102.7276,
            102.7914,
            102.8552,
            102.919,
            102.9829,
            103.0467,
            103.1105,
            103.1743,
            103.2381,
            103.3019,
            103.3657,
            103.4294,
            103.4932,
            103.557,
            103.6207,
            103.6845,
            103.7482,
            103.812,
            103.8757,
            103.9394,
            104.0031,
            104.0669,
            104.1306,
            104.1943,
            104.258,
            104.3217,
            104.3853,
            104.449,
            104.5127,
            104.5764,
            104.64,
            104.7037,
            104.7673,
            104.831,
            104.8946,
            104.9582,
            105.0219,
            105.0855,
            105.1491,
            105.2127,
            105.2763,
            105.3399,
            105.4035,
            105.4671,
            105.5306,
            105.5942,
            105.6578,
            105.7213,
            105.7849,
            105.8484,
            105.912,
            105.9755,
            106.039,
            106.1026,
            106.1661,
            106.2296,
            106.2931,
            106.3566,
            106.4201,
            106.4836,
            106.547,
            106.6105,
            106.674,
            106.7375,
            106.8009,
            106.8644,
            106.9278,
            106.9912,
            107.0547,
            107.1181,
            107.1815,
            107.2449,
            107.3083,
            107.3717,
            107.4351,
            107.4985,
            107.5619,
            107.6253,
            107.6887,
            107.752,
            107.8154,
            107.8788,
            107.9421,
            108.0054,
            108.0688,
            108.1321,
            108.1954,
            108.2588,
            108.3221,
            108.3854,
            108.4487,
            108.512,
            108.5753,
            108.6385,
            108.7018,
            108.7651,
            108.8284,
            108.8916,
            108.9549,
            109.0181,
            109.0814,
            109.1446,
            109.2078,
            109.2711,
            109.3343,
            109.3975,
            109.4607,
            109.5239,
            109.5871,
            109.6503,
            109.7135,
            109.7766,
            109.8398,
            109.903,
            109.9661,
            110.0293,
            110.0924,
            110.1556,
            110.2187,
            110.2818,
            110.345,
            110.4081,
            110.4712,
            110.5343,
            110.5974,
            110.6605,
            110.7236,
            110.7867,
            110.8498,
            110.9128,
            110.9759,
            111.039,
            111.102,
            111.1651,
            111.2281,
            111.2911,
            111.3542,
            111.4172,
            111.4802,
            111.5432,
            111.6062,
            111.6692,
            111.7322,
            111.7952,
            111.8582,
            111.9212,
            111.9841,
            112.0471,
            112.1101,
            112.173,
            112.236,
            112.2989,
            112.3619,
            112.4248,
            112.4877,
            112.5506,
            112.6135,
            112.6765,
            112.7394,
            112.8023,
            112.8651,
            112.928,
            112.9909,
            113.0538,
            113.1166,
            113.1795,
            113.2424,
            113.3052,
            113.3681,
            113.4309,
            113.4937,
            113.5566,
            113.6194,
            113.6822,
            113.745,
            113.8078,
            113.8706,
            113.9334,
            113.9962,
            114.059,
            114.1217,
            114.1845,
            114.2473,
            114.31,
            114.3728,
            114.4355,
            114.4983,
            114.561,
            114.6237,
            114.6864,
            114.7492,
            114.8119,
            114.8746,
            114.9373,
            115.0,
            115.0627,
            115.1253,
            115.188,
            115.2507,
            115.3134,
            115.376,
            115.4387,
            115.5013,
            115.564,
            115.6266,
            115.6892,
            115.7519,
            115.8145,
            115.8771,
            115.9397,
            116.0023,
            116.0649,
            116.1275,
            116.1901,
            116.2527,
            116.3152,
            116.3778,
            116.4404,
            116.5029,
            116.5655,
            116.628,
            116.6906,
            116.7531,
            116.8156,
            116.8781,
            116.9407,
            117.0032,
            117.0657,
            117.1282,
            117.1907,
            117.2532,
            117.3156,
            117.3781,
            117.4406,
            117.503,
            117.5655,
            117.628,
            117.6904,
            117.7529,
            117.8153,
            117.8777,
            117.9401,
            118.0026,
            118.065,
            118.1274,
            118.1898,
            118.2522,
            118.3146,
            118.377,
            118.4394,
            118.5017,
            118.5641,
            118.6265,
            118.6888,
            118.7512,
            118.8135,
            118.8759,
            118.9382,
            119.0005,
            119.0628,
            119.1252,
            119.1875,
            119.2498,
            119.3121,
            119.3744,
            119.4367,
            119.499,
            119.5612,
            119.6235,
            119.6858,
            119.748,
            119.8103,
            119.8726,
            119.9348,
            119.997,
            120.0593,
            120.1215,
            120.1837,
            120.2459,
            120.3082,
            120.3704,
            120.4326,
            120.4948,
            120.5569,
            120.6191,
            120.6813,
            120.7435,
            120.8056,
            120.8678,
            120.93,
            120.9921,
            121.0543,
            121.1164,
            121.1785,
            121.2407,
            121.3028,
            121.3649,
            121.427,
            121.4891,
            121.5512,
            121.6133,
            121.6754,
            121.7375,
            121.7996,
            121.8616,
            121.9237,
            121.9858,
            122.0478,
            122.1099,
            122.1719,
            122.2339,
            122.296,
            122.358,
            122.42,
            122.482,
            122.5441,
            122.6061,
            122.6681,
            122.7301,
            122.7921,
            122.854,
            122.916,
            122.978,
            123.04,
            123.1019,
            123.1639,
            123.2258,
            123.2878,
            123.3497,
            123.4116,
            123.4736,
            123.5355,
            123.5974,
            123.6593,
            123.7212,
            123.7831,
            123.845,
            123.9069,
            123.9688,
            124.0307,
            124.0925,
            124.1544,
            124.2163,
            124.2781,
            124.34,
            124.4018,
            124.4637,
            124.5255,
            124.5873,
            124.6492,
            124.711,
            124.7728,
            124.8346,
            124.8964,
            124.9582,
            125.02,
            125.0818,
            125.1436,
            125.2053,
            125.2671,
            125.3289,
            125.3906,
            125.4524,
            125.5141,
            125.5759,
            125.6376,
            125.6993,
            125.7611,
            125.8228,
            125.8845,
            125.9462,
            126.0079,
            126.0696,
            126.1313,
            126.193,
            126.2547,
            126.3163,
            126.378,
            126.4397,
            126.5013,
            126.563,
            126.6246,
            126.6863,
            126.7479,
            126.8095,
            126.8712,
            126.9328,
            126.9944,
            127.056,
            127.1176,
            127.1792,
            127.2408,
            127.3024,
            127.364,
            127.4256,
            127.4872,
            127.5487,
            127.6103,
            127.6718,
            127.7334,
            127.7949,
            127.8565,
            127.918,
            127.9795,
            128.0411,
            128.1026,
            128.1641,
            128.2256,
            128.2871,
            128.3486,
            128.4101,
            128.4716,
            128.5331,
            128.5945,
            128.656,
            128.7175,
            128.7789,
            128.8404,
            128.9018,
            128.9633,
            129.0247,
            129.0862,
            129.1476,
            129.209,
            129.2704,
            129.3318,
            129.3932,
            129.4546,
            129.516,
            129.5774,
            129.6388,
            129.7002,
            129.7616,
            129.8229,
            129.8843,
            129.9457,
            130.007,
            130.0684,
            130.1297,
            130.191,
            130.2524,
            130.3137,
            130.375,
            130.4363,
            130.4976,
            130.5589,
            130.6202,
            130.6815,
            130.7428,
            130.8041,
            130.8654,
            130.9267,
            130.9879,
            131.0492,
            131.1104,
            131.1717,
            131.2329,
            131.2942,
            131.3554,
            131.4167,
            131.4779,
            131.5391,
            131.6003,
            131.6615,
            131.7227,
            131.7839,
            131.8451,
            131.9063,
            131.9675,
            132.0287,
            132.0898,
            132.151,
            132.2122,
            132.2733,
            132.3345,
            132.3956,
            132.4568,
            132.5179,
            132.579,
            132.6401,
            132.7013,
            132.7624,
            132.8235,
            132.8846,
            132.9457,
            133.0068,
            133.0679,
            133.1289,
            133.19,
            133.2511,
            133.3122,
            133.3732,
            133.4343,
            133.4953,
            133.5564,
            133.6174,
            133.6784,
            133.7395,
            133.8005,
            133.8615,
            133.9225,
            133.9835,
            134.0445,
            134.1055,
            134.1665,
            134.2275,
            134.2885,
            134.3495,
            134.4104,
            134.4714,
            134.5324,
            134.5933,
            134.6543,
            134.7152,
            134.7762,
            134.8371,
            134.898,
            134.959,
            135.0199,
            135.0808,
            135.1417,
            135.1417
        ],
        "Empuje (kg)": [
            0.0,
            319910.6348,
            320074.1021,
            320237.5928,
            320401.1068,
            320564.6441,
            320728.2048,
            320891.7887,
            321055.396,
            321219.0267,
            321382.6806,
            321546.3578,
            321710.0583,
            321873.7821,
            322037.5292,
            322201.2996,
            322365.0933,
            322528.9102,
            322692.7504,
            322856.6139,
            323020.5007,
            323184.4107,
            323348.3439,
            323512.3005,
            323676.2802,
            323840.2832,
            324004.3094,
            324168.3589,
            324332.4316,
            324496.5275,
            324660.6467,
            324824.789,
            324988.9546,
            325153.1434,
            325317.3553,
            325481.5905,
            325645.8489,
            325810.1304,
            325974.4352,
            326138.7631,
            326303.1142,
            326467.4885,
            326631.8859,
            326796.3065,
            326960.7502,
            327125.2172,
            327289.7072,
            327454.2204,
            327618.7568,
            327783.3162,
            327947.8989,
            328112.5046,
            328277.1335,
            328441.7854,
            328606.4605,
            328771.1588,
            328935.8801,
            329100.6245,
            329265.392,
            329430.1826,
            329594.9963,
            329759.8331,
            329924.693,
            330089.5759,
            330254.4819,
            330419.411,
            330584.3631,
            330749.3383,
            330914.3366,
            331079.3579,
            331244.4023,
            331409.4697,
            331574.5601,
            331739.6736,
            331904.81,
            332069.9696,
            332235.1521,
            332400.3577,
            332565.5862,
            332730.8378,
            332896.1124,
            333061.41,
            333226.7305,
            333392.0741,
            333557.4406,
            333722.8302,
            333888.2427,
            334053.6782,
            334219.1366,
            334384.618,
            334550.1224,
            334715.6497,
            334881.2,
            335046.7732,
            335212.3694,
            335377.9885,
            335543.6306,
            335709.2956,
            335874.9835,
            336040.6943,
            336206.4281,
            336372.1847,
            336537.9643,
            336703.7668,
            336869.5922,
            337035.4404,
            337201.3116,
            337367.2057,
            337533.1226,
            337699.0624,
            337865.0251,
            338031.0107,
            338197.0192,
            338363.0505,
            338529.1046,
            338695.1816,
            338861.2815,
            339027.4042,
            339193.5498,
            339359.7182,
            339525.9094,
            339692.1235,
            339858.3604,
            340024.6201,
            340190.9026,
            340357.2079,
            340523.5361,
            340689.887,
            340856.2608,
            341022.6573,
            341189.0767,
            341355.5188,
            341521.9837,
            341688.4714,
            341854.9819,
            342021.5152,
            342188.0712,
            342354.6499,
            342521.2515,
            342687.8758,
            342854.5228,
            343021.1926,
            343187.8851,
            343354.6004,
            343521.3384,
            343688.0991,
            343854.8826,
            344021.6888,
            344188.5177,
            344355.3693,
            344522.2436,
            344689.1406,
            344856.0604,
            345023.0028,
            345189.9679,
            345356.9557,
            345523.9662,
            345690.9994,
            345858.0552,
            346025.1338,
            346192.2349,
            346359.3588,
            346526.5053,
            346693.6745,
            346860.8663,
            347028.0808,
            347195.3179,
            347362.5777,
            347529.8601,
            347697.1651,
            347864.4927,
            348031.843,
            348199.2159,
            348366.6114,
            348534.0296,
            348701.4703,
            348868.9336,
            349036.4196,
            349203.9281,
            349371.4592,
            349539.0129,
            349706.5892,
            349874.1881,
            350041.8095,
            350209.4535,
            350377.1201,
            350544.8092,
            350712.5209,
            350880.2552,
            351048.012,
            351215.7913,
            351383.5932,
            351551.4177,
            351719.2646,
            351887.1341,
            352055.0262,
            352222.9407,
            352390.8778,
            352558.8374,
            352726.8194,
            352894.824,
            353062.8511,
            353230.9007,
            353398.9728,
            353567.0674,
            353735.1845,
            353903.324,
            354071.486,
            354239.6705,
            354407.8775,
            354576.1069,
            354744.3588,
            354912.6332,
            355080.93,
            355249.2493,
            355417.591,
            355585.9551,
            355754.3417,
            355922.7507,
            356091.1822,
            356259.636,
            356428.1123,
            356596.6111,
            356765.1322,
            356933.6757,
            357102.2417,
            357270.83,
            357439.4408,
            357608.0739,
            357776.7295,
            357945.4074,
            358114.1077,
            358282.8304,
            358451.5754,
            358620.3428,
            358789.1326,
            358957.9448,
            359126.7793,
            359295.6362,
            359464.5154,
            359633.4169,
            359802.3408,
            359971.2871,
            360140.2557,
            360309.2466,
            360478.2598,
            360647.2954,
            360816.3533,
            360985.4335,
            361154.536,
            361323.6608,
            361492.8079,
            361661.9774,
            361831.1691,
            362000.3831,
            362169.6194,
            362338.878,
            362508.1588,
            362677.462,
            362846.7874,
            363016.135,
            363185.505,
            363354.8972,
            363524.3117,
            363693.7484,
            363863.2073,
            364032.6885,
            364202.192,
            364371.7177,
            364541.2656,
            364710.8357,
            364880.4281,
            365050.0427,
            365219.6795,
            365389.3385,
            365559.0198,
            365728.7232,
            365898.4489,
            366068.1967,
            366237.9668,
            366407.759,
            366577.5734,
            366747.41,
            366917.2688,
            367087.1497,
            367257.0529,
            367426.9781,
            367596.9256,
            367766.8952,
            367936.887,
            368106.9009,
            368276.937,
            368446.9952,
            368617.0756,
            368787.1781,
            368957.3027,
            369127.4494,
            369297.6183,
            369467.8093,
            369638.0224,
            369808.2577,
            369978.515,
            370148.7945,
            370319.096,
            370489.4197,
            370659.7654,
            370830.1333,
            371000.5232,
            371170.9352,
            371341.3693,
            371511.8254,
            371682.3037,
            371852.804,
            372023.3263,
            372193.8708,
            372364.4372,
            372535.0258,
            372705.6364,
            372876.269,
            373046.9237,
            373217.6004,
            373388.2991,
            373559.0199,
            373729.7627,
            373900.5275,
            374071.3143,
            374242.1232,
            374412.9541,
            374583.8069,
            374754.6818,
            374925.5787,
            375096.4975,
            375267.4384,
            375438.4013,
            375609.3861,
            375780.3929,
            375951.4217,
            376122.4725,
            376293.5452,
            376464.6399,
            376635.7566,
            376806.8952,
            376978.0558,
            377149.2383,
            377320.4428,
            377491.6692,
            377662.9175,
            377834.1878,
            378005.48,
            378176.7942,
            378348.1303,
            378519.4883,
            378690.8682,
            378862.27,
            379033.6937,
            379205.1394,
            379376.6069,
            379548.0964,
            379719.6077,
            379891.1409,
            380062.6961,
            380234.2731,
            380405.8719,
            380577.4927,
            380749.1353,
            380920.7998,
            381092.4862,
            381264.1944,
            381435.9245,
            381607.6764,
            381779.4502,
            381951.2458,
            382123.0633,
            382294.9026,
            382466.7637,
            382638.6467,
            382810.5515,
            382982.4782,
            383154.4266,
            383326.3969,
            383498.389,
            383670.4028,
            383842.4385,
            384014.496,
            384186.5753,
            384358.6764,
            384530.7993,
            384702.944,
            384875.1104,
            385047.2986,
            385219.5086,
            385391.7404,
            385563.994,
            385736.2693,
            385908.5664,
            386080.8852,
            386253.2258,
            386425.5881,
            386597.9722,
            386770.378,
            386942.8056,
            387115.2549,
            387287.7259,
            387460.2187,
            387632.7332,
            387805.2694,
            387977.8273,
            388150.407,
            388323.0083,
            388495.6314,
            388668.2761,
            388840.9426,
            389013.6308,
            389186.3406,
            389359.0722,
            389531.8254,
            389704.6003,
            389877.3969,
            390050.2151,
            390223.0551,
            390395.9166,
            390568.7999,
            390741.7048,
            390914.6314,
            391087.5796,
            391260.5495,
            391433.541,
            391606.5542,
            391779.589,
            391952.6454,
            392125.7235,
            392298.8232,
            392471.9445,
            392645.0874,
            392818.252,
            392991.4381,
            393164.6459,
            393337.8753,
            393511.1263,
            393684.3988,
            393857.693,
            394031.0088,
            394204.3461,
            394377.7051,
            394551.0856,
            394724.4877,
            394897.9113,
            395071.3566,
            395244.8234,
            395418.3117,
            395591.8217,
            395765.3531,
            395938.9062,
            396112.4807,
            396286.0769,
            396459.6945,
            396633.3337,
            396806.9945,
            396980.6767,
            397154.3805,
            397328.1058,
            397501.8527,
            397675.621,
            397849.4109,
            398023.2223,
            398197.0551,
            398370.9095,
            398544.7854,
            398718.6828,
            398892.6016,
            399066.542,
            399240.5038,
            399414.4872,
            399588.492,
            399762.5182,
            399936.566,
            400110.6352,
            400284.7258,
            400458.838,
            400632.9716,
            400807.1266,
            400981.3031,
            401155.501,
            401329.7204,
            401503.9612,
            401678.2234,
            401852.5071,
            402026.8122,
            402201.1388,
            402375.4867,
            402549.8561,
            402724.2469,
            402898.6591,
            403073.0927,
            403247.5477,
            403422.0241,
            403596.5219,
            403771.0411,
            403945.5816,
            404120.1436,
            404294.727,
            404469.3317,
            404643.9578,
            404818.6053,
            404993.2741,
            405167.9643,
            405342.6759,
            405517.4088,
            405692.1631,
            405866.9388,
            406041.7357,
            406216.5541,
            406391.3937,
            406566.2547,
            406741.1371,
            406916.0407,
            407090.9657,
            407265.912,
            407440.8797,
            407615.8686,
            407790.8789,
            407965.9105,
            408140.9634,
            408316.0375,
            408491.133,
            408666.2498,
            408841.3879,
            409016.5472,
            409191.7279,
            409366.9298,
            409542.153,
            409717.3975,
            409892.6632,
            410067.9503,
            410243.2585,
            410418.5881,
            410593.9389,
            410769.3109,
            410944.7043,
            411120.1188,
            411295.5546,
            411471.0116,
            411646.4899,
            411821.9894,
            411997.5102,
            412173.0521,
            412348.6153,
            412524.1997,
            412699.8054,
            412875.4322,
            413051.0803,
            413226.7495,
            413402.44,
            413578.1516,
            413753.8845,
            413929.6385,
            414105.4138,
            414281.2102,
            414457.0278,
            414632.8666,
            414808.7265,
            414984.6077,
            415160.51,
            415336.4334,
            415512.378,
            415688.3438,
            415864.3308,
            416040.3389,
            416216.3681,
            416392.4185,
            416568.49,
            416744.5827,
            416920.6965,
            417096.8314,
            417272.9875,
            417449.1647,
            417625.363,
            417801.5824,
            417977.8229,
            418154.0846,
            418330.3674,
            418506.6712,
            418682.9962,
            418859.3422,
            419035.7094,
            419212.0976,
            419388.507,
            419564.9374,
            419741.3889,
            419917.8615,
            420094.3551,
            420270.8699,
            420447.4057,
            420623.9625,
            420800.5404,
            420977.1394,
            421153.7594,
            421330.4005,
            421507.0626,
            421683.7458,
            421860.45,
            422037.1753,
            422213.9215,
            422390.6889,
            422567.4772,
            422744.2866,
            422921.117,
            423097.9684,
            423274.8408,
            423451.7342,
            423628.6486,
            423805.5841,
            423982.5405,
            424159.518,
            424336.5164,
            424513.5358,
            424690.5762,
            424867.6376,
            425044.72,
            425221.8234,
            425398.9477,
            425576.093,
            425753.2593,
            425930.4465,
            426107.6547,
            426284.8838,
            426462.1339,
            426639.405,
            426816.697,
            426994.0099,
            427171.3438,
            427348.6987,
            427526.0744,
            427703.4711,
            427880.8887,
            428058.3273,
            428235.7867,
            428413.2671,
            428590.7684,
            428768.2906,
            428945.8338,
            429123.3978,
            429300.9827,
            429478.5885,
            429656.2153,
            429833.8629,
            430011.5314,
            430189.2208,
            430366.931,
            430544.6622,
            430722.4142,
            430900.1871,
            431077.9809,
            431255.7955,
            431433.631,
            431611.4873,
            431789.3646,
            431967.2626,
            432145.1815,
            432323.1213,
            432501.0819,
            432679.0633,
            432857.0656,
            433035.0887,
            433213.1326,
            433391.1974,
            433569.283,
            433747.3894,
            433925.5166,
            434103.6647,
            434281.8335,
            434460.0232,
            434638.2336,
            434816.4649,
            434994.717,
            435172.9898,
            435351.2835,
            435529.5979,
            435707.9331,
            435886.2891,
            436064.6659,
            436243.0635,
            436421.4818,
            436599.9209,
            436778.3807,
            436956.8613,
            437135.3627,
            437313.8849,
            437492.4277,
            437670.9914,
            437849.5758,
            438028.1809,
            438206.8067,
            438385.4533,
            438564.1207,
            438742.8087,
            438921.5175,
            439100.247,
            439278.9973,
            439457.7682,
            439636.5599,
            439815.3723,
            439994.2054,
            440173.0591,
            440351.9336,
            440530.8288,
            440709.7447,
            440888.6813,
            441067.6385,
            441246.6165,
            441425.6151,
            441604.6344,
            441783.6744,
            441962.735,
            442141.8164,
            442320.9183,
            442500.041,
            442679.1843,
            442858.3483,
            443037.5329,
            443216.7382,
            443395.9641,
            443575.2107,
            443754.4779,
            443933.7657,
            444113.0742,
            444292.4033,
            444471.753,
            444651.1234,
            444830.5143,
            445009.9259,
            445189.3582,
            445368.811,
            445548.2844,
            445727.7785,
            445907.2931,
            446086.8283,
            446266.3842,
            446445.9606,
            446625.5576,
            446805.1753,
            446984.8134,
            447164.4722,
            447344.1516,
            447523.8515,
            447703.572,
            447883.3131,
            448063.0747,
            448242.8569,
            448422.6596,
            448602.4829,
            448782.3268,
            448962.1912,
            449142.0762,
            449321.9817,
            449501.9077,
            449681.8543,
            449861.8214,
            450041.809,
            450221.8172,
            450401.8459,
            450581.8951,
            450761.9648,
            450942.055,
            451122.1658,
            451302.2971,
            451482.4488,
            451662.6211,
            451842.8139,
            452023.0271,
            452203.2609,
            452383.5152,
            452563.7899,
            452744.0851,
            452924.4008,
            453104.737,
            453285.0937,
            453465.4708,
            453645.8684,
            453826.2864,
            454006.725,
            454187.1839,
            454367.6634,
            454548.1633,
            454728.6836,
            454909.2244,
            455089.7856,
            455270.3673,
            455450.9694,
            455631.5919,
            455812.2349,
            455992.8983,
            456173.5821,
            456354.2864,
            456535.0111,
            456715.7561,
            456896.5216,
            457077.3075,
            457258.1139,
            457438.9406,
            457619.7877,
            457800.6552,
            457981.5431,
            458162.4514,
            458343.3801,
            458524.3292,
            458705.2986,
            458886.2885,
            459067.2987,
            459248.3292,
            459429.3802,
            459610.4515,
            459791.5432,
            459972.6553,
            460153.7877,
            460334.9404,
            460516.1135,
            460697.307,
            460878.5208,
            461059.7549,
            461241.0094,
            461422.2842,
            461603.5794,
            461784.8949,
            461966.2307,
            462147.5868,
            462328.9633,
            462510.36,
            462691.7771,
            462873.2145,
            463054.6722,
            463236.1503,
            463417.6486,
            463599.1672,
            463780.7061,
            463962.2653,
            464143.8448,
            464325.4446,
            464507.0647,
            464688.705,
            464870.3657,
            465052.0466,
            465233.7478,
            465415.4692,
            465597.2109,
            465778.9729,
            465960.7552,
            466142.5577,
            466324.3804,
            466506.2234,
            466688.0867,
            466869.9702,
            467051.8739,
            467233.7979,
            467415.7421,
            467597.7066,
            467779.6913,
            467961.6962,
            468143.7213,
            468325.7667,
            468507.8323,
            468689.9181,
            468872.0241,
            469054.1503,
            469236.2967,
            469418.4633,
            469600.6502,
            469782.8572,
            469965.0844,
            470147.3318,
            470329.5994,
            470511.8872,
            470694.1952,
            470876.5233,
            471058.8717,
            471241.2402,
            471423.6288,
            471606.0377,
            471788.4667,
            471970.9158,
            472153.3852,
            472335.8746,
            472518.3843,
            472700.914,
            472883.464,
            473066.0341,
            473248.6243,
            473431.2346,
            473613.8651,
            473796.5157,
            473979.1865,
            474161.8774,
            474344.5884,
            474527.3195,
            474710.0707,
            474892.8421,
            475075.6335,
            475258.4451,
            475441.2768,
            475624.1286,
            475807.0005,
            475989.8924,
            476172.8045,
            476355.7367,
            476538.6889,
            476721.6613,
            476904.6537,
            477087.6662,
            477270.6988,
            477453.7514,
            477636.8241,
            477819.9169,
            478003.0298,
            478186.1627,
            478369.3157,
            478552.4887,
            478735.6818,
            478918.8949,
            479102.1281,
            479285.3813,
            479468.6546,
            479651.9479,
            479835.2612,
            480018.5946,
            480201.948,
            480385.3214,
            480568.7148,
            480752.1283,
            480935.5618,
            481119.0153,
            481302.4888,
            481485.9823,
            481669.4959,
            481853.0294,
            482036.5829,
            482220.1565,
            482403.75,
            482587.3635,
            482770.997,
            482954.6505,
            483138.324,
            483322.0174,
            483505.7309,
            483689.4643,
            483873.2176,
            484056.991,
            484240.7843,
            484424.5976,
            484608.4308,
            484792.284,
            484976.1571,
            485160.0502,
            485343.9633,
            485527.8963,
            485711.8492,
            485895.8221,
            486079.8149,
            486263.8276,
            486447.8603,
            486631.9129,
            486815.9854,
            487000.0779,
            487184.1902,
            487368.3225,
            487552.4747,
            487736.6468,
            487920.8388,
            488105.0508,
            488289.2826,
            488473.5343,
            488657.8059,
            488842.0975,
            489026.4089,
            489210.7402,
            489395.0913,
            489579.4624,
            489763.8533,
            489948.2641,
            490132.6948,
            490317.1454,
            490501.6158,
            490686.1061,
            490870.6163,
            491055.1463,
            491239.6962,
            491424.2659,
            491608.8555,
            491793.4649,
            491978.0942,
            492162.7433,
            492347.4122,
            492532.101,
            492716.8096,
            492901.5381,
            493086.2864,
            493271.0545,
            493455.8424,
            493640.6502,
            493825.4777,
            494010.3251,
            494195.1923,
            494380.0793,
            494564.9861,
            494749.9127,
            494934.8591,
            495119.8253,
            495304.8113,
            495489.8171,
            495674.8427,
            495859.888,
            496044.9532,
            496230.0381,
            496415.1428,
            496600.2673,
            496785.4115,
            496970.5755,
            497155.7593,
            497340.9629,
            497526.1862,
            497711.4292,
            497896.6921,
            498081.9746,
            498267.2769,
            498452.599,
            498637.9408,
            498823.3024,
            499008.6837,
            499194.0847,
            499379.5054,
            499564.9459,
            499750.4061,
            499935.8861,
            500121.3857,
            500306.9051,
            500492.4442,
            500678.003,
            500863.5815,
            501049.1797,
            501234.7977,
            501420.4353,
            501606.0926,
            501791.7696,
            501977.4663,
            502163.1827,
            502348.9188,
            502534.6746,
            502720.4501,
            502906.2452,
            503092.06,
            503277.8945,
            503463.7487,
            503649.6225,
            503835.516,
            504021.4291,
            504207.362,
            504393.3144,
            504579.2866,
            504765.2783,
            504951.2898,
            505137.3208,
            505323.3715,
            505509.4419,
            505695.5319,
            505881.6415,
            506067.7708,
            506253.9197,
            506440.0882,
            506626.2763,
            506812.4841,
            506998.7115,
            507184.9585,
            507371.2251,
            507557.5113,
            507743.8171,
            507930.1425,
            508116.4876,
            508302.8522,
            508489.2364,
            508675.6403,
            508862.0637,
            509048.5067,
            509234.9693,
            509421.4514,
            509607.9532,
            509794.4745,
            509981.0154,
            510167.5759,
            510354.1559,
            510540.7555,
            510727.3747,
            510914.0134,
            511100.6717,
            511287.3496,
            511474.047,
            511660.7639,
            511847.5004,
            512034.2564,
            512221.032,
            512407.8271,
            512594.6418,
            512781.476,
            512968.3297,
            513155.2029,
            513342.0957,
            513529.008,
            513715.9398,
            513902.8912,
            514089.862,
            514276.8524,
            514463.8622,
            514650.8916,
            514837.9405,
            515025.0089,
            515212.0967,
            515399.2041,
            515586.331,
            515773.4773,
            515960.6432,
            516147.8285,
            516335.0333,
            516522.2576,
            516709.5013,
            516896.7646,
            517084.0473,
            517271.3495,
            517458.6711,
            517646.0122,
            517833.3728,
            518020.7528,
            518208.1523,
            518395.5712,
            518583.0096,
            518770.4674,
            518957.9447,
            519145.4414,
            519332.9575,
            519520.4931,
            519708.0482,
            519895.6226,
            520083.2165,
            520270.8298,
            520458.4625,
            520646.1147,
            520833.7862,
            521021.4772,
            521209.1876,
            521396.9174,
            521584.6666,
            521772.4352,
            521960.2232,
            522148.0306,
            522335.8575,
            522523.7037,
            522711.5692,
            522899.4542,
            523087.3586,
            523275.2823,
            523463.2255,
            523651.188,
            523839.1698,
            524027.1711,
            524215.1917,
            524403.2317,
            524591.291,
            524779.3698,
            524967.4678,
            525155.5852,
            525343.722,
            525531.8782,
            525720.0536,
            525908.2485,
            526096.4626,
            526284.6961,
            526472.949,
            526661.2212,
            526849.5127,
            527037.8235,
            527226.1537,
            527414.5032,
            527602.872,
            527791.2601,
            527979.6675,
            528168.0943,
            528356.5404,
            528545.0058,
            528733.4904,
            528921.9944,
            529110.5177,
            529299.0603,
            529487.6222,
            529676.2034,
            529864.8038,
            530053.4236,
            530242.0626,
            530430.7209,
            530619.3985,
            530808.0954,
            530996.8116,
            531185.547,
            531374.3017,
            531563.0756,
            531751.8688,
            531940.6813,
            532129.5131,
            532318.3641,
            532507.2343,
            532696.1238,
            532885.0326,
            533073.9605,
            533262.9078,
            533451.8742,
            533640.86,
            533829.8649,
            534018.8891,
            534207.9325,
            534396.9951,
            534586.077,
            534775.1781,
            534964.2984,
            535153.4379,
            535342.5966,
            535531.7746,
            535720.9717,
            535910.1881,
            536099.4236,
            536288.6784,
            536477.9524,
            536667.2455,
            536856.5579,
            537045.8894,
            537235.2401,
            537424.61,
            537613.9991,
            537803.4074,
            537992.8349,
            538182.2815,
            538371.7473,
            538561.2323,
            538750.7364,
            538940.2597,
            539129.8022,
            539319.3638,
            539508.9446,
            539698.5445,
            539888.1636,
            540077.8019,
            540267.4592,
            540457.1358,
            540646.8314,
            540836.5463,
            541026.2802,
            541216.0333,
            541405.8055,
            541595.5968,
            541785.4073,
            541975.2369,
            542165.0856,
            542354.9534,
            542544.8404,
            542734.7464,
            542924.6716,
            543114.6159,
            543304.5793,
            543494.5617,
            543684.5633,
            543874.584,
            544064.6238,
            544254.6827,
            544444.7606,
            544634.8577,
            544824.9738,
            545015.109,
            545205.2633,
            545395.4367,
            545585.6291,
            545775.8407,
            545966.0713,
            546156.3209,
            546346.5896,
            546536.8774,
            546727.1843,
            546917.5102,
            547107.8551,
            547298.2191,
            547488.6022,
            547679.0043,
            547869.4254,
            548059.8656,
            548250.3249,
            548440.8031,
            548631.3004,
            548821.8168,
            549012.3521,
            549202.9065,
            549393.4799,
            549584.0724,
            549774.6838,
            549965.3143,
            550155.9638,
            550346.6323,
            550537.3198,
            550728.0263,
            550918.7518,
            551109.4963,
            551300.2598,
            551491.0423,
            551681.8438,
            551872.6643,
            552063.5038,
            552254.3623,
            552445.2397,
            552636.1362,
            552827.0516,
            553017.986,
            553208.9393,
            553399.9117,
            553590.903,
            553781.9132,
            553972.9425,
            554163.9907,
            554355.0578,
            554546.1439,
            554737.249,
            554928.373,
            555119.516,
            555310.6779,
            555501.8587,
            555693.0585,
            555884.2772,
            556075.5149,
            556266.7715,
            556458.047,
            556649.3415,
            556840.6549,
            557031.9872,
            557223.3384,
            557414.7086,
            557606.0976,
            557797.5056,
            557988.9325,
            558180.3783,
            558371.843,
            558563.3266,
            558754.8291,
            558946.3505,
            559137.8908,
            559329.45,
            559521.0281,
            559712.6251,
            559904.2409,
            560095.8757,
            560287.5293,
            560479.2018,
            560670.8932,
            560862.6035,
            561054.3326,
            561246.0806,
            561437.8474,
            561629.6332,
            561821.4377,
            562013.2612,
            562205.1035,
            562396.9647,
            562588.8447,
            562780.7435,
            562972.6612,
            563164.5978,
            563356.5532,
            563548.5274,
            563740.5205,
            563932.5324,
            564124.5631,
            564316.6126,
            564508.681,
            564700.7682,
            564892.8743,
            565084.9991,
            565277.1428,
            565469.3053,
            565661.4866,
            565853.6867,
            566045.9056,
            566238.1433,
            566430.3998,
            566622.6752,
            566814.9693,
            567007.2822,
            567199.6139,
            567391.9644,
            567584.3337,
            567776.7217,
            567969.1286,
            568161.5542,
            568353.9986,
            568546.4618,
            568738.9438,
            568931.4445,
            569123.964,
            569316.5023,
            569509.0593,
            569701.6351,
            569894.2296,
            570086.8429,
            570279.475,
            570472.1258,
            570664.7953,
            570857.4836,
            571050.1907,
            571242.9164,
            571435.661,
            571628.4242,
            571821.2062,
            572014.0069,
            572206.8264,
            572399.6646,
            572592.5215,
            572785.3971,
            572978.2914,
            573171.2045,
            573364.1363,
            573557.0868,
            573750.056,
            573943.0439,
            574136.0505,
            574329.0758,
            574522.1198,
            574715.1825,
            574908.2639,
            575101.364,
            575294.4828,
            575487.6203,
            575680.7765,
            575873.9513,
            576067.1448,
            576260.357,
            576453.5879,
            576646.8375,
            576840.1057,
            577033.3926,
            577226.6982,
            577420.0224,
            577613.3653,
            577806.7268,
            578000.107,
            578193.5059,
            578386.9234,
            578580.3596,
            578773.8144,
            578967.2878,
            579160.7799,
            579354.2906,
            579547.82,
            579741.368,
            579934.9347,
            580128.5199,
            580322.1238,
            580515.7463,
            580709.3875,
            580903.0473,
            581096.7256,
            581290.4226,
            581484.1383,
            581677.8725,
            581871.6253,
            582065.3968,
            582259.1868,
            582452.9955,
            582646.8227,
            582840.6685,
            583034.533,
            583228.416,
            583422.3176,
            583616.2378,
            583810.1766,
            584004.134,
            584198.11,
            584392.1045,
            584586.1176,
            584780.1493,
            584974.1995,
            585168.2684,
            585362.3558,
            585556.4617,
            585750.5862,
            585944.7293,
            586138.8909,
            586333.0711,
            586527.2698,
            586721.4871,
            586915.723,
            587109.9773,
            587304.2503,
            587498.5417,
            587692.8517,
            587887.1803,
            588081.5273,
            588275.8929,
            588470.277,
            588664.6797,
            588859.1009,
            589053.5406,
            589247.9988,
            589442.4755,
            589636.9708,
            589831.4845,
            590026.0168,
            590220.5676,
            590415.1368,
            590609.7246,
            590804.3309,
            590998.9557,
            591193.599,
            591388.2607,
            591582.941,
            591777.6397,
            591972.357,
            592167.0927,
            592361.8469,
            592556.6196,
            592751.4107,
            592946.2204,
            593141.0485,
            593335.895,
            593530.7601,
            593725.6436,
            593920.5455,
            594115.466,
            594310.4048,
            594505.3622,
            594700.338,
            594895.3322,
            595090.3449,
            595285.3761,
            595480.4256,
            595675.4937,
            595870.5801,
            596065.685,
            596260.8084,
            596455.9502,
            596651.1104,
            596846.289,
            597041.486,
            597236.7015,
            597431.9354,
            597627.1877,
            597822.4585,
            598017.7476,
            598213.0552,
            598408.3811,
            598603.7255,
            598799.0883,
            598994.4695,
            599189.8691,
            599385.287,
            599580.7234,
            599776.1782,
            599971.6513,
            600167.1429,
            600362.6528,
            600558.1811,
            600753.7278,
            600949.2929,
            601144.8764,
            601340.4782,
            601536.0984,
            601731.737,
            601927.3939,
            602123.0692,
            602318.7629,
            602514.4749,
            602710.2053,
            602905.9541,
            603101.7212,
            603297.5066,
            603493.3104,
            603689.1326,
            603884.9731,
            604080.8319,
            604276.7091,
            604472.6046,
            604668.5184,
            604864.4506,
            605060.4011,
            605256.37,
            605452.3571,
            605648.3626,
            605844.3864,
            606040.4286,
            606236.489,
            606432.5678,
            606628.6649,
            606824.7803,
            607020.914,
            607217.066,
            607413.2363,
            607609.4249,
            607805.6318,
            608001.857,
            608198.1005,
            608394.3623,
            608590.6424,
            608786.9408,
            608983.2574,
            609179.5924,
            609375.9456,
            609572.3171,
            609768.7069,
            609965.1149,
            610161.5412,
            610357.9858,
            610554.4487,
            610750.9298,
            610947.4292,
            611143.9468,
            611340.4828,
            611537.0369,
            611733.6093,
            611930.2,
            612126.8089,
            612323.4361,
            612520.0815,
            612716.7451,
            612913.427,
            613110.1272,
            613306.8455,
            613503.5821,
            613700.337,
            613897.11,
            614093.9013,
            614290.7108,
            614487.5386,
            614684.3845,
            614881.2487,
            615078.1311,
            615275.0317,
            615471.9505,
            615668.8875,
            615865.8427,
            616062.8162,
            616259.8078,
            616456.8176,
            616653.8457,
            616850.8919,
            617047.9563,
            617245.0389,
            617442.1397,
            617639.2587,
            617836.3959,
            618033.5512,
            618230.7247,
            618427.9164,
            618625.1263,
            618822.3544,
            619019.6006,
            619216.865,
            619414.1476,
            619611.4483,
            619808.7672,
            620006.1042,
            620203.4594,
            620400.8328,
            620598.2243,
            620795.634,
            620993.0618,
            621190.5077,
            621387.9718,
            621585.4541,
            621782.9544,
            621980.473,
            622178.0096,
            622375.5644,
            622573.1373,
            622770.7284,
            622968.3375,
            623165.9648,
            623363.6103,
            623561.2738,
            623758.9555,
            623956.6552,
            624154.3731,
            624352.1091,
            624549.8632,
            624747.6354,
            624945.4257,
            625143.2341,
            625341.0607,
            625538.9053,
            625736.768,
            625934.6488,
            626132.5477,
            626330.4647,
            626528.3997,
            626726.3529,
            626924.3241,
            627122.3134,
            627320.3208,
            627518.3463,
            627716.3898,
            627914.4514,
            628112.5311,
            628310.6289,
            628508.7447,
            628706.8785,
            628905.0305,
            629103.2005,
            629301.3885,
            629499.5946,
            629697.8188,
            629896.061,
            630094.3212,
            630292.5995,
            630490.8958,
            630689.2102,
            630887.5426,
            631085.8931,
            631284.2615,
            631482.6481,
            631681.0526,
            631879.4752,
            632077.9158,
            632276.3744,
            632474.851,
            632673.3457,
            632871.8584,
            633070.389,
            633268.9377,
            633467.5045,
            633666.0892,
            633864.6919,
            634063.3126,
            634261.9513,
            634460.6081,
            634659.2828,
            634857.9755,
            635056.6862,
            635255.4149,
            635454.1616,
            635652.9263,
            635851.7089,
            636050.5096,
            636249.3282,
            636448.1648,
            636647.0194,
            636845.8919,
            637044.7824,
            637243.6909,
            637442.6174,
            637641.5618,
            637840.5241,
            638039.5045,
            638238.5028,
            638437.519,
            638636.5532,
            638835.6054,
            639034.6755,
            639233.7635,
            639432.8695,
            639631.9934,
            639831.1353,
            640030.2951,
            640229.4729,
            640428.6686,
            640627.8822,
            640827.1137,
            641026.3632,
            641225.6306,
            641424.9159,
            641624.2192,
            641823.5403,
            642022.8794,
            642222.2364,
            642421.6113,
            642621.0041,
            642820.4149,
            643019.8435,
            643219.29,
            643418.7545,
            643618.2368,
            643817.737,
            644017.2552,
            644216.7912,
            644416.3451,
            644615.9169,
            644815.5066,
            645015.1142,
            645214.7396,
            645414.383,
            645614.0442,
            645813.7233,
            646013.4202,
            646213.1351,
            646412.8678,
            646612.6183,
            646812.3868,
            647012.1731,
            647211.9772,
            647411.7993,
            647611.6391,
            647811.4969,
            648011.3725,
            648211.2659,
            648411.1772,
            648611.1063,
            648811.0533,
            649011.0181,
            649211.0008,
            649411.0013,
            649611.0196,
            649811.0558,
            650011.1098,
            650211.1816,
            650411.2713,
            650611.3787,
            650811.504,
            651011.6472,
            651211.8081,
            651411.9869,
            651612.1834,
            651812.3978,
            652012.63,
            652212.88,
            652413.1478,
            652613.4334,
            652813.7369,
            653014.0581,
            653214.3971,
            653414.7539,
            653615.1285,
            653815.5209,
            654015.9311,
            654216.359,
            654416.8048,
            654617.2683,
            654817.7496,
            655018.2487,
            655218.7656,
            655419.3003,
            655619.8527,
            655820.4229,
            656021.0108,
            656221.6166,
            656422.24,
            656622.8813,
            656823.5403,
            657024.2171,
            657224.9116,
            657425.6239,
            657626.3539,
            657827.1017,
            658027.8672,
            658228.6505,
            658429.4515,
            658630.2702,
            658831.1067,
            659031.961,
            659232.8329,
            659433.7226,
            659634.6301,
            659835.5552,
            660036.4981,
            660237.4587,
            660438.437,
            660639.4331,
            660840.4468,
            661041.4783,
            661242.5275,
            661443.5944,
            661644.6791,
            661845.7814,
            662046.9014,
            662248.0391,
            662449.1946,
            662650.3677,
            662851.5586,
            663052.7671,
            663253.9933,
            663455.2372,
            663656.4988,
            663857.7781,
            664059.0751,
            664260.3897,
            664461.7221,
            664663.0721,
            664864.4398,
            665065.8251,
            665267.2282,
            665468.6489,
            665670.0873,
            665871.5433,
            666073.017,
            666274.5084,
            666476.0174,
            666677.5441,
            666879.0884,
            667080.6504,
            667282.2301,
            667483.8274,
            667685.4423,
            667887.0749,
            668088.7251,
            668290.393,
            668492.0785,
            668693.7817,
            668895.5025,
            669097.2409,
            669298.9969,
            669500.7706,
            669702.5619,
            669904.3709,
            670106.1974,
            670308.0416,
            670509.9034,
            670711.7828,
            670913.6798,
            671115.5945,
            671317.5267,
            671519.4766,
            671721.444,
            671923.4291,
            672125.4318,
            672327.4521,
            672529.4899,
            672731.5454,
            672933.6185,
            673135.7091,
            673337.8174,
            673539.9432,
            673742.0866,
            673944.2476,
            674146.4262,
            674348.6224,
            674550.8361,
            674753.0674,
            674955.3163,
            675157.5828,
            675359.8668,
            675562.1684,
            675764.4876,
            675966.8243,
            676169.1786,
            676371.5504,
            676573.9399,
            676776.3468,
            676978.7713,
            677181.2134,
            677383.673,
            677586.1502,
            677788.6449,
            677991.1572,
            678193.687,
            678396.2343,
            678598.7992,
            678801.3816,
            679003.9815,
            679206.599,
            679409.234,
            679611.8865,
            679814.5566,
            680017.2442,
            680219.9493,
            680422.6719,
            680625.412,
            680828.1697,
            681030.9448,
            681233.7375,
            681436.5477,
            681639.3754,
            681842.2206,
            682045.0833,
            682247.9635,
            682450.8612,
            682653.7764,
            682856.7091,
            683059.6593,
            683262.6269,
            683465.6121,
            683668.6147,
            683871.6349,
            684074.6725,
            684277.7276,
            684480.8002,
            684683.8902,
            684886.9978,
            685090.1228,
            685293.2652,
            685496.4252,
            685699.6026,
            685902.7975,
            686106.0098,
            686309.2396,
            686512.4869,
            686715.7516,
            686919.0337,
            687122.3334,
            687325.6504,
            687528.985,
            687732.3369,
            687935.7063,
            688139.0932,
            688342.4975,
            688545.9192,
            0.0
        ],
        "CF": [
            0.0,
            2.6211,
            2.6212,
            2.6213,
            2.6214,
            2.6215,
            2.6216,
            2.6217,
            2.6218,
            2.6219,
            2.622,
            2.622,
            2.6221,
            2.6222,
            2.6223,
            2.6224,
            2.6225,
            2.6226,
            2.6227,
            2.6228,
            2.6229,
            2.623,
            2.623,
            2.6231,
            2.6232,
            2.6233,
            2.6234,
            2.6235,
            2.6236,
            2.6237,
            2.6238,
            2.6238,
            2.6239,
            2.624,
            2.6241,
            2.6242,
            2.6243,
            2.6244,
            2.6245,
            2.6246,
            2.6246,
            2.6247,
            2.6248,
            2.6249,
            2.625,
            2.6251,
            2.6252,
            2.6253,
            2.6254,
            2.6254,
            2.6255,
            2.6256,
            2.6257,
            2.6258,
            2.6259,
            2.626,
            2.6261,
            2.6261,
            2.6262,
            2.6263,
            2.6264,
            2.6265,
            2.6266,
            2.6267,
            2.6268,
            2.6268,
            2.6269,
            2.627,
            2.6271,
            2.6272,
            2.6273,
            2.6274,
            2.6274,
            2.6275,
            2.6276,
            2.6277,
            2.6278,
            2.6279,
            2.628,
            2.6281,
            2.6281,
            2.6282,
            2.6283,
            2.6284,
            2.6285,
            2.6286,
            2.6287,
            2.6287,
            2.6288,
            2.6289,
            2.629,
            2.6291,
            2.6292,
            2.6293,
            2.6293,
            2.6294,
            2.6295,
            2.6296,
            2.6297,
            2.6298,
            2.6298,
            2.6299,
            2.63,
            2.6301,
            2.6302,
            2.6303,
            2.6304,
            2.6304,
            2.6305,
            2.6306,
            2.6307,
            2.6308,
            2.6309,
            2.6309,
            2.631,
            2.6311,
            2.6312,
            2.6313,
            2.6314,
            2.6314,
            2.6315,
            2.6316,
            2.6317,
            2.6318,
            2.6319,
            2.6319,
            2.632,
            2.6321,
            2.6322,
            2.6323,
            2.6324,
            2.6324,
            2.6325,
            2.6326,
            2.6327,
            2.6328,
            2.6328,
            2.6329,
            2.633,
            2.6331,
            2.6332,
            2.6333,
            2.6333,
            2.6334,
            2.6335,
            2.6336,
            2.6337,
            2.6337,
            2.6338,
            2.6339,
            2.634,
            2.6341,
            2.6342,
            2.6342,
            2.6343,
            2.6344,
            2.6345,
            2.6346,
            2.6346,
            2.6347,
            2.6348,
            2.6349,
            2.635,
            2.635,
            2.6351,
            2.6352,
            2.6353,
            2.6354,
            2.6354,
            2.6355,
            2.6356,
            2.6357,
            2.6358,
            2.6358,
            2.6359,
            2.636,
            2.6361,
            2.6362,
            2.6362,
            2.6363,
            2.6364,
            2.6365,
            2.6366,
            2.6366,
            2.6367,
            2.6368,
            2.6369,
            2.637,
            2.637,
            2.6371,
            2.6372,
            2.6373,
            2.6374,
            2.6374,
            2.6375,
            2.6376,
            2.6377,
            2.6377,
            2.6378,
            2.6379,
            2.638,
            2.6381,
            2.6381,
            2.6382,
            2.6383,
            2.6384,
            2.6384,
            2.6385,
            2.6386,
            2.6387,
            2.6388,
            2.6388,
            2.6389,
            2.639,
            2.6391,
            2.6391,
            2.6392,
            2.6393,
            2.6394,
            2.6395,
            2.6395,
            2.6396,
            2.6397,
            2.6398,
            2.6398,
            2.6399,
            2.64,
            2.6401,
            2.6402,
            2.6402,
            2.6403,
            2.6404,
            2.6405,
            2.6405,
            2.6406,
            2.6407,
            2.6408,
            2.6408,
            2.6409,
            2.641,
            2.6411,
            2.6411,
            2.6412,
            2.6413,
            2.6414,
            2.6414,
            2.6415,
            2.6416,
            2.6417,
            2.6417,
            2.6418,
            2.6419,
            2.642,
            2.642,
            2.6421,
            2.6422,
            2.6423,
            2.6423,
            2.6424,
            2.6425,
            2.6426,
            2.6426,
            2.6427,
            2.6428,
            2.6429,
            2.6429,
            2.643,
            2.6431,
            2.6432,
            2.6432,
            2.6433,
            2.6434,
            2.6435,
            2.6435,
            2.6436,
            2.6437,
            2.6438,
            2.6438,
            2.6439,
            2.644,
            2.6441,
            2.6441,
            2.6442,
            2.6443,
            2.6444,
            2.6444,
            2.6445,
            2.6446,
            2.6446,
            2.6447,
            2.6448,
            2.6449,
            2.6449,
            2.645,
            2.6451,
            2.6452,
            2.6452,
            2.6453,
            2.6454,
            2.6455,
            2.6455,
            2.6456,
            2.6457,
            2.6457,
            2.6458,
            2.6459,
            2.646,
            2.646,
            2.6461,
            2.6462,
            2.6462,
            2.6463,
            2.6464,
            2.6465,
            2.6465,
            2.6466,
            2.6467,
            2.6468,
            2.6468,
            2.6469,
            2.647,
            2.647,
            2.6471,
            2.6472,
            2.6473,
            2.6473,
            2.6474,
            2.6475,
            2.6475,
            2.6476,
            2.6477,
            2.6478,
            2.6478,
            2.6479,
            2.648,
            2.648,
            2.6481,
            2.6482,
            2.6482,
            2.6483,
            2.6484,
            2.6485,
            2.6485,
            2.6486,
            2.6487,
            2.6487,
            2.6488,
            2.6489,
            2.649,
            2.649,
            2.6491,
            2.6492,
            2.6492,
            2.6493,
            2.6494,
            2.6494,
            2.6495,
            2.6496,
            2.6496,
            2.6497,
            2.6498,
            2.6499,
            2.6499,
            2.65,
            2.6501,
            2.6501,
            2.6502,
            2.6503,
            2.6503,
            2.6504,
            2.6505,
            2.6506,
            2.6506,
            2.6507,
            2.6508,
            2.6508,
            2.6509,
            2.651,
            2.651,
            2.6511,
            2.6512,
            2.6512,
            2.6513,
            2.6514,
            2.6514,
            2.6515,
            2.6516,
            2.6516,
            2.6517,
            2.6518,
            2.6519,
            2.6519,
            2.652,
            2.6521,
            2.6521,
            2.6522,
            2.6523,
            2.6523,
            2.6524,
            2.6525,
            2.6525,
            2.6526,
            2.6527,
            2.6527,
            2.6528,
            2.6529,
            2.6529,
            2.653,
            2.6531,
            2.6531,
            2.6532,
            2.6533,
            2.6533,
            2.6534,
            2.6535,
            2.6535,
            2.6536,
            2.6537,
            2.6537,
            2.6538,
            2.6539,
            2.6539,
            2.654,
            2.6541,
            2.6541,
            2.6542,
            2.6543,
            2.6543,
            2.6544,
            2.6545,
            2.6545,
            2.6546,
            2.6547,
            2.6547,
            2.6548,
            2.6549,
            2.6549,
            2.655,
            2.6551,
            2.6551,
            2.6552,
            2.6553,
            2.6553,
            2.6554,
            2.6555,
            2.6555,
            2.6556,
            2.6557,
            2.6557,
            2.6558,
            2.6558,
            2.6559,
            2.656,
            2.656,
            2.6561,
            2.6562,
            2.6562,
            2.6563,
            2.6564,
            2.6564,
            2.6565,
            2.6566,
            2.6566,
            2.6567,
            2.6568,
            2.6568,
            2.6569,
            2.657,
            2.657,
            2.6571,
            2.6571,
            2.6572,
            2.6573,
            2.6573,
            2.6574,
            2.6575,
            2.6575,
            2.6576,
            2.6577,
            2.6577,
            2.6578,
            2.6578,
            2.6579,
            2.658,
            2.658,
            2.6581,
            2.6582,
            2.6582,
            2.6583,
            2.6584,
            2.6584,
            2.6585,
            2.6585,
            2.6586,
            2.6587,
            2.6587,
            2.6588,
            2.6589,
            2.6589,
            2.659,
            2.6591,
            2.6591,
            2.6592,
            2.6592,
            2.6593,
            2.6594,
            2.6594,
            2.6595,
            2.6596,
            2.6596,
            2.6597,
            2.6597,
            2.6598,
            2.6599,
            2.6599,
            2.66,
            2.6601,
            2.6601,
            2.6602,
            2.6602,
            2.6603,
            2.6604,
            2.6604,
            2.6605,
            2.6606,
            2.6606,
            2.6607,
            2.6607,
            2.6608,
            2.6609,
            2.6609,
            2.661,
            2.661,
            2.6611,
            2.6612,
            2.6612,
            2.6613,
            2.6614,
            2.6614,
            2.6615,
            2.6615,
            2.6616,
            2.6617,
            2.6617,
            2.6618,
            2.6618,
            2.6619,
            2.662,
            2.662,
            2.6621,
            2.6621,
            2.6622,
            2.6623,
            2.6623,
            2.6624,
            2.6625,
            2.6625,
            2.6626,
            2.6626,
            2.6627,
            2.6628,
            2.6628,
            2.6629,
            2.6629,
            2.663,
            2.6631,
            2.6631,
            2.6632,
            2.6632,
            2.6633,
            2.6634,
            2.6634,
            2.6635,
            2.6635,
            2.6636,
            2.6637,
            2.6637,
            2.6638,
            2.6638,
            2.6639,
            2.664,
            2.664,
            2.6641,
            2.6641,
            2.6642,
            2.6643,
            2.6643,
            2.6644,
            2.6644,
            2.6645,
            2.6646,
            2.6646,
            2.6647,
            2.6647,
            2.6648,
            2.6648,
            2.6649,
            2.665,
            2.665,
            2.6651,
            2.6651,
            2.6652,
            2.6653,
            2.6653,
            2.6654,
            2.6654,
            2.6655,
            2.6656,
            2.6656,
            2.6657,
            2.6657,
            2.6658,
            2.6658,
            2.6659,
            2.666,
            2.666,
            2.6661,
            2.6661,
            2.6662,
            2.6663,
            2.6663,
            2.6664,
            2.6664,
            2.6665,
            2.6665,
            2.6666,
            2.6667,
            2.6667,
            2.6668,
            2.6668,
            2.6669,
            2.6669,
            2.667,
            2.6671,
            2.6671,
            2.6672,
            2.6672,
            2.6673,
            2.6673,
            2.6674,
            2.6675,
            2.6675,
            2.6676,
            2.6676,
            2.6677,
            2.6677,
            2.6678,
            2.6679,
            2.6679,
            2.668,
            2.668,
            2.6681,
            2.6681,
            2.6682,
            2.6683,
            2.6683,
            2.6684,
            2.6684,
            2.6685,
            2.6685,
            2.6686,
            2.6687,
            2.6687,
            2.6688,
            2.6688,
            2.6689,
            2.6689,
            2.669,
            2.6691,
            2.6691,
            2.6692,
            2.6692,
            2.6693,
            2.6693,
            2.6694,
            2.6694,
            2.6695,
            2.6696,
            2.6696,
            2.6697,
            2.6697,
            2.6698,
            2.6698,
            2.6699,
            2.6699,
            2.67,
            2.6701,
            2.6701,
            2.6702,
            2.6702,
            2.6703,
            2.6703,
            2.6704,
            2.6704,
            2.6705,
            2.6706,
            2.6706,
            2.6707,
            2.6707,
            2.6708,
            2.6708,
            2.6709,
            2.6709,
            2.671,
            2.6711,
            2.6711,
            2.6712,
            2.6712,
            2.6713,
            2.6713,
            2.6714,
            2.6714,
            2.6715,
            2.6715,
            2.6716,
            2.6717,
            2.6717,
            2.6718,
            2.6718,
            2.6719,
            2.6719,
            2.672,
            2.672,
            2.6721,
            2.6721,
            2.6722,
            2.6722,
            2.6723,
            2.6724,
            2.6724,
            2.6725,
            2.6725,
            2.6726,
            2.6726,
            2.6727,
            2.6727,
            2.6728,
            2.6728,
            2.6729,
            2.6729,
            2.673,
            2.6731,
            2.6731,
            2.6732,
            2.6732,
            2.6733,
            2.6733,
            2.6734,
            2.6734,
            2.6735,
            2.6735,
            2.6736,
            2.6736,
            2.6737,
            2.6738,
            2.6738,
            2.6739,
            2.6739,
            2.674,
            2.674,
            2.6741,
            2.6741,
            2.6742,
            2.6742,
            2.6743,
            2.6743,
            2.6744,
            2.6744,
            2.6745,
            2.6745,
            2.6746,
            2.6746,
            2.6747,
            2.6748,
            2.6748,
            2.6749,
            2.6749,
            2.675,
            2.675,
            2.6751,
            2.6751,
            2.6752,
            2.6752,
            2.6753,
            2.6753,
            2.6754,
            2.6754,
            2.6755,
            2.6755,
            2.6756,
            2.6756,
            2.6757,
            2.6757,
            2.6758,
            2.6758,
            2.6759,
            2.676,
            2.676,
            2.6761,
            2.6761,
            2.6762,
            2.6762,
            2.6763,
            2.6763,
            2.6764,
            2.6764,
            2.6765,
            2.6765,
            2.6766,
            2.6766,
            2.6767,
            2.6767,
            2.6768,
            2.6768,
            2.6769,
            2.6769,
            2.677,
            2.677,
            2.6771,
            2.6771,
            2.6772,
            2.6772,
            2.6773,
            2.6773,
            2.6774,
            2.6774,
            2.6775,
            2.6775,
            2.6776,
            2.6776,
            2.6777,
            2.6777,
            2.6778,
            2.6778,
            2.6779,
            2.6779,
            2.678,
            2.678,
            2.6781,
            2.6781,
            2.6782,
            2.6782,
            2.6783,
            2.6783,
            2.6784,
            2.6784,
            2.6785,
            2.6785,
            2.6786,
            2.6786,
            2.6787,
            2.6787,
            2.6788,
            2.6788,
            2.6789,
            2.6789,
            2.679,
            2.679,
            2.6791,
            2.6791,
            2.6792,
            2.6792,
            2.6793,
            2.6793,
            2.6794,
            2.6794,
            2.6795,
            2.6795,
            2.6796,
            2.6796,
            2.6797,
            2.6797,
            2.6798,
            2.6798,
            2.6799,
            2.6799,
            2.68,
            2.68,
            2.6801,
            2.6801,
            2.6802,
            2.6802,
            2.6803,
            2.6803,
            2.6804,
            2.6804,
            2.6805,
            2.6805,
            2.6806,
            2.6806,
            2.6807,
            2.6807,
            2.6808,
            2.6808,
            2.6809,
            2.6809,
            2.681,
            2.681,
            2.6811,
            2.6811,
            2.6812,
            2.6812,
            2.6813,
            2.6813,
            2.6813,
            2.6814,
            2.6814,
            2.6815,
            2.6815,
            2.6816,
            2.6816,
            2.6817,
            2.6817,
            2.6818,
            2.6818,
            2.6819,
            2.6819,
            2.682,
            2.682,
            2.6821,
            2.6821,
            2.6822,
            2.6822,
            2.6823,
            2.6823,
            2.6824,
            2.6824,
            2.6825,
            2.6825,
            2.6825,
            2.6826,
            2.6826,
            2.6827,
            2.6827,
            2.6828,
            2.6828,
            2.6829,
            2.6829,
            2.683,
            2.683,
            2.6831,
            2.6831,
            2.6832,
            2.6832,
            2.6833,
            2.6833,
            2.6834,
            2.6834,
            2.6834,
            2.6835,
            2.6835,
            2.6836,
            2.6836,
            2.6837,
            2.6837,
            2.6838,
            2.6838,
            2.6839,
            2.6839,
            2.684,
            2.684,
            2.6841,
            2.6841,
            2.6841,
            2.6842,
            2.6842,
            2.6843,
            2.6843,
            2.6844,
            2.6844,
            2.6845,
            2.6845,
            2.6846,
            2.6846,
            2.6847,
            2.6847,
            2.6848,
            2.6848,
            2.6848,
            2.6849,
            2.6849,
            2.685,
            2.685,
            2.6851,
            2.6851,
            2.6852,
            2.6852,
            2.6853,
            2.6853,
            2.6853,
            2.6854,
            2.6854,
            2.6855,
            2.6855,
            2.6856,
            2.6856,
            2.6857,
            2.6857,
            2.6858,
            2.6858,
            2.6859,
            2.6859,
            2.6859,
            2.686,
            2.686,
            2.6861,
            2.6861,
            2.6862,
            2.6862,
            2.6863,
            2.6863,
            2.6864,
            2.6864,
            2.6864,
            2.6865,
            2.6865,
            2.6866,
            2.6866,
            2.6867,
            2.6867,
            2.6868,
            2.6868,
            2.6868,
            2.6869,
            2.6869,
            2.687,
            2.687,
            2.6871,
            2.6871,
            2.6872,
            2.6872,
            2.6873,
            2.6873,
            2.6873,
            2.6874,
            2.6874,
            2.6875,
            2.6875,
            2.6876,
            2.6876,
            2.6877,
            2.6877,
            2.6877,
            2.6878,
            2.6878,
            2.6879,
            2.6879,
            2.688,
            2.688,
            2.6881,
            2.6881,
            2.6881,
            2.6882,
            2.6882,
            2.6883,
            2.6883,
            2.6884,
            2.6884,
            2.6884,
            2.6885,
            2.6885,
            2.6886,
            2.6886,
            2.6887,
            2.6887,
            2.6888,
            2.6888,
            2.6888,
            2.6889,
            2.6889,
            2.689,
            2.689,
            2.6891,
            2.6891,
            2.6891,
            2.6892,
            2.6892,
            2.6893,
            2.6893,
            2.6894,
            2.6894,
            2.6895,
            2.6895,
            2.6895,
            2.6896,
            2.6896,
            2.6897,
            2.6897,
            2.6898,
            2.6898,
            2.6898,
            2.6899,
            2.6899,
            2.69,
            2.69,
            2.6901,
            2.6901,
            2.6901,
            2.6902,
            2.6902,
            2.6903,
            2.6903,
            2.6904,
            2.6904,
            2.6904,
            2.6905,
            2.6905,
            2.6906,
            2.6906,
            2.6907,
            2.6907,
            2.6907,
            2.6908,
            2.6908,
            2.6909,
            2.6909,
            2.691,
            2.691,
            2.691,
            2.6911,
            2.6911,
            2.6912,
            2.6912,
            2.6913,
            2.6913,
            2.6913,
            2.6914,
            2.6914,
            2.6915,
            2.6915,
            2.6915,
            2.6916,
            2.6916,
            2.6917,
            2.6917,
            2.6918,
            2.6918,
            2.6918,
            2.6919,
            2.6919,
            2.692,
            2.692,
            2.6921,
            2.6921,
            2.6921,
            2.6922,
            2.6922,
            2.6923,
            2.6923,
            2.6923,
            2.6924,
            2.6924,
            2.6925,
            2.6925,
            2.6926,
            2.6926,
            2.6926,
            2.6927,
            2.6927,
            2.6928,
            2.6928,
            2.6928,
            2.6929,
            2.6929,
            2.693,
            2.693,
            2.693,
            2.6931,
            2.6931,
            2.6932,
            2.6932,
            2.6933,
            2.6933,
            2.6933,
            2.6934,
            2.6934,
            2.6935,
            2.6935,
            2.6935,
            2.6936,
            2.6936,
            2.6937,
            2.6937,
            2.6937,
            2.6938,
            2.6938,
            2.6939,
            2.6939,
            2.6939,
            2.694,
            2.694,
            2.6941,
            2.6941,
            2.6942,
            2.6942,
            2.6942,
            2.6943,
            2.6943,
            2.6944,
            2.6944,
            2.6944,
            2.6945,
            2.6945,
            2.6946,
            2.6946,
            2.6946,
            2.6947,
            2.6947,
            2.6948,
            2.6948,
            2.6948,
            2.6949,
            2.6949,
            2.695,
            2.695,
            2.695,
            2.6951,
            2.6951,
            2.6952,
            2.6952,
            2.6952,
            2.6953,
            2.6953,
            2.6954,
            2.6954,
            2.6954,
            2.6955,
            2.6955,
            2.6956,
            2.6956,
            2.6956,
            2.6957,
            2.6957,
            2.6958,
            2.6958,
            2.6958,
            2.6959,
            2.6959,
            2.696,
            2.696,
            2.696,
            2.6961,
            2.6961,
            2.6962,
            2.6962,
            2.6962,
            2.6963,
            2.6963,
            2.6964,
            2.6964,
            2.6964,
            2.6965,
            2.6965,
            2.6965,
            2.6966,
            2.6966,
            2.6967,
            2.6967,
            2.6967,
            2.6968,
            2.6968,
            2.6969,
            2.6969,
            2.6969,
            2.697,
            2.697,
            2.6971,
            2.6971,
            2.6971,
            2.6972,
            2.6972,
            2.6973,
            2.6973,
            2.6973,
            2.6974,
            2.6974,
            2.6974,
            2.6975,
            2.6975,
            2.6976,
            2.6976,
            2.6976,
            2.6977,
            2.6977,
            2.6978,
            2.6978,
            2.6978,
            2.6979,
            2.6979,
            2.6979,
            2.698,
            2.698,
            2.6981,
            2.6981,
            2.6981,
            2.6982,
            2.6982,
            2.6983,
            2.6983,
            2.6983,
            2.6984,
            2.6984,
            2.6984,
            2.6985,
            2.6985,
            2.6986,
            2.6986,
            2.6986,
            2.6987,
            2.6987,
            2.6987,
            2.6988,
            2.6988,
            2.6989,
            2.6989,
            2.6989,
            2.699,
            2.699,
            2.6991,
            2.6991,
            2.6991,
            2.6992,
            2.6992,
            2.6992,
            2.6993,
            2.6993,
            2.6994,
            2.6994,
            2.6994,
            2.6995,
            2.6995,
            2.6995,
            2.6996,
            2.6996,
            2.6997,
            2.6997,
            2.6997,
            2.6998,
            2.6998,
            2.6998,
            2.6999,
            2.6999,
            2.7,
            2.7,
            2.7,
            2.7001,
            2.7001,
            2.7001,
            2.7002,
            2.7002,
            2.7003,
            2.7003,
            2.7003,
            2.7004,
            2.7004,
            2.7004,
            2.7005,
            2.7005,
            2.7005,
            2.7006,
            2.7006,
            2.7007,
            2.7007,
            2.7007,
            2.7008,
            2.7008,
            2.7008,
            2.7009,
            2.7009,
            2.701,
            2.701,
            2.701,
            2.7011,
            2.7011,
            2.7011,
            2.7012,
            2.7012,
            2.7012,
            2.7013,
            2.7013,
            2.7014,
            2.7014,
            2.7014,
            2.7015,
            2.7015,
            2.7015,
            2.7016,
            2.7016,
            2.7016,
            2.7017,
            2.7017,
            2.7018,
            2.7018,
            2.7018,
            2.7019,
            2.7019,
            2.7019,
            2.702,
            2.702,
            2.702,
            2.7021,
            2.7021,
            2.7022,
            2.7022,
            2.7022,
            2.7023,
            2.7023,
            2.7023,
            2.7024,
            2.7024,
            2.7024,
            2.7025,
            2.7025,
            2.7026,
            2.7026,
            2.7026,
            2.7027,
            2.7027,
            2.7027,
            2.7028,
            2.7028,
            2.7028,
            2.7029,
            2.7029,
            2.7029,
            2.703,
            2.703,
            2.7031,
            2.7031,
            2.7031,
            2.7032,
            2.7032,
            2.7032,
            2.7033,
            2.7033,
            2.7033,
            2.7034,
            2.7034,
            2.7034,
            2.7035,
            2.7035,
            2.7035,
            2.7036,
            2.7036,
            2.7037,
            2.7037,
            2.7037,
            2.7038,
            2.7038,
            2.7038,
            2.7039,
            2.7039,
            2.7039,
            2.704,
            2.704,
            2.704,
            2.7041,
            2.7041,
            2.7041,
            2.7042,
            2.7042,
            2.7042,
            2.7043,
            2.7043,
            2.7044,
            2.7044,
            2.7044,
            2.7045,
            2.7045,
            2.7045,
            2.7046,
            2.7046,
            2.7046,
            2.7047,
            2.7047,
            2.7047,
            2.7048,
            2.7048,
            2.7048,
            2.7049,
            2.7049,
            2.7049,
            2.705,
            2.705,
            2.705,
            2.7051,
            2.7051,
            2.7052,
            2.7052,
            2.7052,
            2.7053,
            2.7053,
            2.7053,
            2.7054,
            2.7054,
            2.7054,
            2.7055,
            2.7055,
            2.7055,
            2.7056,
            2.7056,
            2.7056,
            2.7057,
            2.7057,
            2.7057,
            2.7058,
            2.7058,
            2.7058,
            2.7059,
            2.7059,
            2.7059,
            2.706,
            2.706,
            2.706,
            2.7061,
            2.7061,
            2.7061,
            2.7062,
            2.7062,
            2.7062,
            2.7063,
            2.7063,
            2.7063,
            2.7064,
            2.7064,
            2.7064,
            2.7065,
            2.7065,
            2.7065,
            2.7066,
            2.7066,
            2.7066,
            2.7067,
            2.7067,
            2.7068,
            2.7068,
            2.7068,
            2.7069,
            2.7069,
            2.7069,
            2.707,
            2.707,
            2.707,
            2.7071,
            2.7071,
            2.7071,
            2.7072,
            2.7072,
            2.7072,
            2.7073,
            2.7073,
            2.7073,
            2.7074,
            2.7074,
            2.7074,
            2.7075,
            2.7075,
            2.7075,
            2.7076,
            2.7076,
            2.7076,
            2.7077,
            2.7077,
            2.7077,
            2.7078,
            2.7078,
            2.7078,
            2.7078,
            2.7079,
            2.7079,
            2.7079,
            2.708,
            2.708,
            2.708,
            2.7081,
            2.7081,
            2.7081,
            2.7082,
            2.7082,
            2.7082,
            2.7083,
            2.7083,
            2.7083,
            2.7084,
            2.7084,
            2.7084,
            2.7085,
            2.7085,
            2.7085,
            2.7086,
            2.7086,
            2.7086,
            2.7087,
            2.7087,
            2.7087,
            2.7088,
            2.7088,
            2.7088,
            2.7089,
            2.7089,
            2.7089,
            2.709,
            2.709,
            2.709,
            2.7091,
            2.7091,
            2.7091,
            2.7092,
            2.7092,
            2.7092,
            2.7093,
            2.7093,
            2.7093,
            2.7093,
            2.7094,
            2.7094,
            2.7094,
            2.7095,
            2.7095,
            2.7095,
            2.7096,
            2.7096,
            2.7096,
            2.7097,
            2.7097,
            2.7097,
            2.7098,
            2.7098,
            2.7098,
            2.7099,
            2.7099,
            2.7099,
            2.71,
            2.71,
            2.71,
            2.7101,
            2.7101,
            2.7101,
            2.7101,
            2.7102,
            2.7102,
            2.7102,
            2.7103,
            2.7103,
            2.7103,
            2.7104,
            2.7104,
            2.7104,
            2.7105,
            2.7105,
            2.7105,
            2.7106,
            2.7106,
            2.7106,
            2.7107,
            2.7107,
            2.7107,
            2.7107,
            2.7108,
            2.7108,
            2.7108,
            2.7109,
            2.7109,
            2.7109,
            2.711,
            2.711,
            2.711,
            2.7111,
            2.7111,
            2.7111,
            2.7112,
            2.7112,
            2.7112,
            2.7113,
            2.7113,
            2.7113,
            2.7113,
            2.7114,
            2.7114,
            2.7114,
            2.7115,
            2.7115,
            2.7115,
            2.7116,
            2.7116,
            2.7116,
            2.7117,
            2.7117,
            2.7117,
            2.7117,
            2.7118,
            2.7118,
            2.7118,
            2.7119,
            2.7119,
            2.7119,
            2.712,
            2.712,
            2.712,
            2.7121,
            2.7121,
            2.7121,
            2.7121,
            2.7122,
            2.7122,
            2.7122,
            2.7123,
            2.7123,
            2.7123,
            2.7124,
            2.7124,
            2.7124,
            2.7125,
            2.7125,
            2.7125,
            2.7125,
            2.7126,
            2.7126,
            2.7126,
            2.7127,
            2.7127,
            2.7127,
            2.7128,
            2.7128,
            2.7128,
            2.7129,
            2.7129,
            2.7129,
            2.7129,
            2.713,
            2.713,
            2.713,
            2.7131,
            2.7131,
            2.7131,
            2.7132,
            2.7132,
            2.7132,
            2.7132,
            2.7133,
            2.7133,
            2.7133,
            2.7134,
            2.7134,
            2.7134,
            2.7135,
            2.7135,
            2.7135,
            2.7135,
            2.7136,
            2.7136,
            2.7136,
            2.7137,
            2.7137,
            2.7137,
            2.7138,
            2.7138,
            2.7138,
            2.7138,
            2.7139,
            2.7139,
            2.7139,
            2.714,
            2.714,
            2.714,
            2.7141,
            2.7141,
            2.7141,
            2.7141,
            2.7142,
            2.7142,
            2.7142,
            2.7143,
            2.7143,
            2.7143,
            2.7144,
            2.7144,
            2.7144,
            2.7144,
            2.7145,
            2.7145,
            2.7145,
            2.7146,
            2.7146,
            2.7146,
            2.7146,
            2.7147,
            2.7147,
            2.7147,
            2.7148,
            2.7148,
            2.7148,
            2.7149,
            2.7149,
            2.7149,
            2.7149,
            2.715,
            2.715,
            2.715,
            2.7151,
            2.7151,
            2.7151,
            2.7151,
            2.7152,
            2.7152,
            2.7152,
            2.7153,
            2.7153,
            2.7153,
            2.7154,
            2.7154,
            2.7154,
            2.7154,
            2.7155,
            2.7155,
            2.7155,
            2.7156,
            2.7156,
            2.7156,
            2.7156,
            2.7157,
            2.7157,
            2.7157,
            2.7158,
            2.7158,
            2.7158,
            2.7158,
            2.7159,
            2.7159,
            2.7159,
            2.716,
            2.716,
            2.716,
            2.716,
            2.7161,
            2.7161,
            2.7161,
            2.7162,
            2.7162,
            2.7162,
            2.7162,
            2.7163,
            2.7163,
            2.7163,
            2.7164,
            2.7164,
            2.7164,
            2.7164,
            2.7165,
            2.7165,
            2.7165,
            2.7166,
            2.7166,
            2.7166,
            2.7166,
            2.7167,
            2.7167,
            2.7167,
            2.7168,
            2.7168,
            2.7168,
            2.7168,
            2.7169,
            2.7169,
            2.7169,
            2.717,
            2.717,
            2.717,
            2.717,
            2.7171,
            2.7171,
            2.7171,
            2.7172,
            2.7172,
            2.7172,
            2.7172,
            2.7173,
            2.7173,
            2.7173,
            2.7174,
            2.7174,
            2.7174,
            2.7174,
            2.7175,
            2.7175,
            2.7175,
            2.7176,
            2.7176,
            2.7176,
            2.7176,
            2.7177,
            2.7177,
            2.7177,
            2.7177,
            2.7178,
            2.7178,
            2.7178,
            2.7179,
            2.7179,
            2.7179,
            2.7179,
            2.718,
            2.718,
            2.718,
            2.7181,
            2.7181,
            2.7181,
            2.7181,
            2.7182,
            2.7182,
            2.7182,
            2.7182,
            2.7183,
            2.7183,
            2.7183,
            2.7184,
            2.7184,
            2.7184,
            2.7184,
            2.7185,
            2.7185,
            2.7185,
            2.7185,
            2.7186,
            2.7186,
            2.7186,
            2.7187,
            2.7187,
            2.7187,
            2.7187,
            2.7188,
            2.7188,
            2.7188,
            2.7189,
            2.7189,
            2.7189,
            2.7189,
            2.719,
            2.719,
            2.719,
            2.719,
            2.7191,
            2.7191,
            2.7191,
            2.7192,
            2.7192,
            2.7192,
            2.7192,
            2.7193,
            2.7193,
            2.7193,
            2.7193,
            2.7194,
            2.7194,
            2.7194,
            2.7195,
            2.7195,
            2.7195,
            2.7195,
            2.7196,
            2.7196,
            2.7196,
            2.7196,
            2.7197,
            2.7197,
            2.7197,
            2.7197,
            2.7198,
            2.7198,
            2.7198,
            2.7199,
            2.7199,
            2.7199,
            2.7199,
            2.72,
            2.72,
            2.72,
            2.72,
            2.7201,
            2.7201,
            2.7201,
            2.7201,
            2.7202,
            2.7202,
            2.7202,
            2.7203,
            2.7203,
            2.7203,
            2.7203,
            2.7204,
            2.7204,
            2.7204,
            2.7204,
            2.7205,
            2.7205,
            2.7205,
            2.7205,
            2.7206,
            2.7206,
            2.7206,
            2.7207,
            0.0
        ]
    },
    "calculatedResults": {
        "DP. Thrust (kg)": 407354.35340840224,
        "Med. Thrust (kg)": 490739.8097301296,
        "CF (DP.)": 2.660150369780749,
        "CF (Med.)": 2.678508366855083,
        "Vs (DP.)": 1600.1856385419821,
        "Vs (Med.)": 1599.7361010682646,
        "Ts (DP.)": 1104.9250501491174,
        "Ts (Med.)": 1105.1349662941209,
        "Ps (DP.)": 101325.0,
        "Ps (Med.)": 120963.6528533305,
        "It": 649253194.921055,
        "Isp": 164.63932524404956,
        "AR": 8.030676466255947,
        "MS": 3.0023254239982515,
        "Longitud (m)": 1.6425604903265532,
        "Rt (m)": 0.3,
        "R2 (m)": 0.8501534461278359,
        "PR_Crit0": 1.7410275697145507,
        "PR_Crit1": 0.99682465710239,
        "PR_Crit2": 0.18263376919140548,
        "PR_Crit3": 0.019077529930277424
    }
}